File: examples/Birch_TGA_Example/Work/Cone_x4pclkgu/birch_tga_1step_10_tga.csv
s,C,g/g,1/s,W/g,W/g
Time,Temp,Mass,MLR,MCC,DSC
 6, 21.0007, 0.999998, 4.369e-07, 0.0000000E+000, 0.236481
 36, 26.0007, 0.999979, 8.64679e-07, 0.0000000E+000, 0.237436
 66, 31.0007, 0.999942, 1.67208e-06, 0.0000000E+000, 0.239238
 96, 36.0007, 0.999872, 3.16074e-06, 0.0000000E+000, 0.242557
 126, 41.0007, 0.99974, 5.83993e-06, 0.0000000E+000, 0.248528
 156, 46.0007, 0.999501, 1.0536e-05, 0.0000000E+000, 0.258988
 186, 51.0007, 0.999076, 1.85149e-05, 0.0000000E+000, 0.276746
 216, 56.0007, 0.99834, 3.15376e-05, 0.0000000E+000, 0.305701
 246, 61.0006, 0.997112, 5.1621e-05, 0.0000000E+000, 0.350289
 276, 66.0006, 0.995158, 8.00034e-05, 0.0000000E+000, 0.413148
 306, 71.0006, 0.992247, 0.000114589, 0.0000000E+000, 0.489374
 336, 76.0005, 0.988312, 0.000145893, 0.0000000E+000, 0.557452
 366, 81.0005, 0.983712, 0.000155296, 0.0000000E+000, 0.575505
 396, 86.0005, 0.979394, 0.000125686, 0.0000000E+000, 0.505472
 426, 91.0006, 0.976476, 6.69e-05, 0.0000000E+000, 0.370411
 456, 96.0007, 0.975266, 1.88216e-05, 0.0000000E+000, 0.260783
 486, 101.001, 0.975018, 2.02144e-06, 0.0000000E+000, 0.222604
 516, 106.001, 0.975, 5.13397e-08, 0.0000000E+000, 0.218135
 546, 111.001, 0.975, 1.53537e-10, 0.0000000E+000, 0.218019
 576, 116.001, 0.975, 1.97906e-14, 0.0000000E+000, 0.218018
 606, 121.001, 0.975, 2.6181e-20, 0.0000000E+000, 0.218018
 636, 126.001, 0.975, 4.66309e-29, 0.0000000E+000, 0.218018
 666, 131.001, 0.975, 0.0000000E+000, 1.87949e-38, 0.218018
 696, 136.001, 0.975, 0.0000000E+000, 8.32024e-38, 0.218018
 726, 141.001, 0.975, 0.0000000E+000, 3.5533e-37, 0.218018
 756, 146.001, 0.975, 0.0000000E+000, 1.46583e-36, 0.218018
 786, 151.001, 0.975, 0.0000000E+000, 5.84827e-36, 0.218018
 816, 156.001, 0.975, 0.0000000E+000, 2.25926e-35, 0.218018
 846, 161.001, 0.975, 0.0000000E+000, 8.46033e-35, 0.218018
 876, 166.001, 0.975, 0.0000000E+000, 3.07433e-34, 0.218018
 906, 171.001, 0.975, 2.71292e-38, 1.08517e-33, 0.218018
 936, 176.001, 0.975, 9.31082e-38, 3.72433e-33, 0.218018
 966, 181.001, 0.975, 3.1099e-37, 1.24396e-32, 0.218018
 996, 186.001, 0.975, 1.01181e-36, 4.04723e-32, 0.218018
 1026, 191.001, 0.975, 3.20931e-36, 1.28372e-31, 0.218018
 1056, 196.001, 0.975, 9.93204e-36, 3.97282e-31, 0.218018
 1086, 201.001, 0.975, 3.00136e-35, 1.20054e-30, 0.218018
 1116, 206.001, 0.975, 8.86288e-35, 3.54515e-30, 0.218018
 1146, 211.001, 0.975, 2.55928e-34, 1.02371e-29, 0.218018
 1176, 216.001, 0.975, 7.23179e-34, 2.89272e-29, 0.218018
 1206, 221.001, 0.975, 2.00099e-33, 8.00396e-29, 0.218018
 1236, 226.001, 0.975, 5.42486e-33, 2.16994e-28, 0.218018
 1266, 231.001, 0.975, 1.44192e-32, 5.76767e-28, 0.218018
 1296, 236.001, 0.975, 3.75971e-32, 1.50388e-27, 0.218018
 1326, 241.001, 0.975, 9.62216e-32, 3.84886e-27, 0.218018
 1356, 246.001, 0.975, 2.41841e-31, 9.67363e-27, 0.218018
 1386, 251.001, 0.975, 5.97242e-31, 2.38897e-26, 0.218018
 1416, 256.001, 0.975, 1.44994e-30, 5.79978e-26, 0.218018
 1446, 261.001, 0.975, 3.46211e-30, 1.38484e-25, 0.218018
 1476, 266.001, 0.975, 8.13428e-30, 3.25371e-25, 0.218018
 1506, 271.001, 0.975, 1.8814e-29, 7.52559e-25, 0.218018
 1536, 276.001, 0.975, 4.28558e-29, 1.71423e-24, 0.218018
 1566, 281.001, 0.975, 9.61806e-29, 3.84723e-24, 0.218018
 1596, 286.001, 0.975, 2.12758e-28, 8.51033e-24, 0.218018
 1626, 291.001, 0.975, 4.6406e-28, 1.85624e-23, 0.218018
 1656, 296.001, 0.975, 9.98413e-28, 3.99365e-23, 0.218018
 1686, 301.001, 0.975, 2.11959e-27, 8.47835e-23, 0.218018
 1716, 306.001, 0.975, 4.44168e-27, 1.77667e-22, 0.218018
 1746, 311.001, 0.975, 9.19058e-27, 3.67623e-22, 0.218018
 1776, 316.001, 0.975, 1.87836e-26, 7.51343e-22, 0.218018
 1806, 321.001, 0.975, 3.79305e-26, 1.51722e-21, 0.218018
 1836, 326.001, 0.975, 7.57016e-26, 3.02807e-21, 0.218018
 1866, 331.001, 0.975, 1.49367e-25, 5.97467e-21, 0.218018
 1896, 336.001, 0.975, 2.91446e-25, 1.16578e-20, 0.218018
 1926, 341.001, 0.975, 5.62515e-25, 2.25006e-20, 0.218018
 1956, 346.001, 0.975, 1.07423e-24, 4.29694e-20, 0.218018
 1986, 351.001, 0.975, 2.03031e-24, 8.12123e-20, 0.218018
 2016, 356.001, 0.975, 3.79866e-24, 1.51946e-19, 0.218018
 2046, 361.001, 0.975, 7.03734e-24, 2.81493e-19, 0.218018
 2076, 366.001, 0.975, 1.29121e-23, 5.16484e-19, 0.218018
 2106, 371.001, 0.975, 2.34689e-23, 9.38758e-19, 0.218018
 2136, 376.001, 0.975, 4.22661e-23, 1.69065e-18, 0.218018
 2166, 381.001, 0.975, 7.54372e-23, 3.01749e-18, 0.218018
 2196, 386.001, 0.975, 1.33463e-22, 5.33854e-18, 0.218018
 2226, 391.001, 0.975, 2.34103e-22, 9.36414e-18, 0.218018
 2256, 396.001, 0.975, 4.07199e-22, 1.62879e-17, 0.218018
 2286, 401.001, 0.975, 7.02488e-22, 2.80995e-17, 0.218018
 2316, 406.001, 0.975, 1.20222e-21, 4.80888e-17, 0.218018
 2346, 411.001, 0.975, 2.04136e-21, 8.16542e-17, 0.218018
 2376, 416.001, 0.975, 3.43967e-21, 1.37587e-16, 0.218018
 2406, 421.001, 0.975, 5.75242e-21, 2.30097e-16, 0.218018
 2436, 426.001, 0.975, 9.5497e-21, 3.81988e-16, 0.218018
 2466, 431.001, 0.975, 1.57399e-20, 6.29597e-16, 0.218018
 2496, 436.001, 0.975, 2.57606e-20, 1.03042e-15, 0.218018
 2526, 441.001, 0.975, 4.18709e-20, 1.67484e-15, 0.218018
 2556, 446.001, 0.975, 6.75983e-20, 2.70393e-15, 0.218018
 2586, 451.001, 0.975, 1.08414e-19, 4.33658e-15, 0.218018
 2616, 456.001, 0.975, 1.72752e-19, 6.9101e-15, 0.218018
 2646, 461.001, 0.975, 2.7353e-19, 1.09412e-14, 0.218018
 2676, 466.001, 0.975, 4.30414e-19, 1.72166e-14, 0.218018
 2706, 471.001, 0.975, 6.73165e-19, 2.69266e-14, 0.218018
 2736, 476.001, 0.975, 1.04656e-18, 4.18624e-14, 0.218018
 2766, 481.001, 0.975, 1.61758e-18, 6.47032e-14, 0.218018
 2796, 486.001, 0.975, 2.48586e-18, 9.94343e-14, 0.218018
 2826, 491.001, 0.975, 3.79878e-18, 1.51951e-13, 0.218018
 2856, 496.001, 0.975, 5.77322e-18, 2.30929e-13, 0.218018
 2886, 501.001, 0.975, 8.72658e-18, 3.49063e-13, 0.218018
 2916, 506.001, 0.975, 1.3121e-17, 5.2484e-13, 0.218018
 2946, 511.001, 0.975, 1.9626e-17, 7.85039e-13, 0.218018
 2976, 516.001, 0.975, 2.92065e-17, 1.16826e-12, 0.218018
 3006, 521.001, 0.975, 4.32468e-17, 1.72987e-12, 0.218018
 3036, 526.001, 0.975, 6.37229e-17, 2.54892e-12, 0.218018
 3066, 531.001, 0.975, 9.34422e-17, 3.73769e-12, 0.218018
 3096, 536.001, 0.975, 1.36375e-16, 5.45502e-12, 0.218018
 3126, 541.001, 0.975, 1.98113e-16, 7.92452e-12, 0.218018
 3156, 546.001, 0.975, 2.8649e-16, 1.14596e-11, 0.218018
 3186, 551.001, 0.975, 4.12441e-16, 1.64977e-11, 0.218018
 3216, 556.001, 0.975, 5.91162e-16, 2.36465e-11, 0.218018
 3246, 561.001, 0.975, 8.43677e-16, 3.37471e-11, 0.218018
 3276, 566.001, 0.975, 1.19896e-15, 4.79585e-11, 0.218018
 3306, 571.001, 0.975, 1.69678e-15, 6.78713e-11, 0.218018
 3336, 576.001, 0.975, 2.39151e-15, 9.56602e-11, 0.218018
 3366, 581.001, 0.975, 3.35715e-15, 1.34286e-10, 0.218018
 3396, 586.001, 0.975, 4.69415e-15, 1.87766e-10, 0.218018
 3426, 591.001, 0.975, 6.53819e-15, 2.61528e-10, 0.218018
 3456, 596.001, 0.975, 9.07199e-15, 3.6288e-10, 0.218018
 3486, 601.001, 0.975, 1.25407e-14, 5.01626e-10, 0.218018
 3516, 606.001, 0.975, 1.72718e-14, 6.90874e-10, 0.218018
 3546, 611.001, 0.975, 2.3702e-14, 9.48079e-10, 0.218018
 3576, 616.001, 0.975, 3.24104e-14, 1.29642e-09, 0.218018
 3606, 621.001, 0.975, 4.41637e-14, 1.76655e-09, 0.218018
 3636, 626.001, 0.975, 5.99723e-14, 2.39889e-09, 0.218018
 3666, 631.001, 0.975, 8.11647e-14, 3.24659e-09, 0.218018
 3696, 636.001, 0.975, 1.09481e-13, 4.37923e-09, 0.218018
 3726, 641.001, 0.975, 1.47193e-13, 5.88771e-09, 0.218018
 3756, 646.001, 0.975, 1.97259e-13, 7.89036e-09, 0.218018
 3786, 651.001, 0.975, 2.63518e-13, 1.05407e-08, 0.218018
 3816, 656.001, 0.975, 3.50939e-13, 1.40376e-08, 0.218018
 3846, 661.001, 0.975, 4.6593e-13, 1.86372e-08, 0.218018
 3876, 666.001, 0.975, 6.16735e-13, 2.46694e-08, 0.218018
 3906, 671.001, 0.975, 8.1393e-13, 3.25572e-08, 0.218018
 3936, 676.001, 0.975, 1.07104e-12, 4.28416e-08, 0.218018
 3966, 681.001, 0.975, 1.40532e-12, 5.62128e-08, 0.218018
 3996, 686.001, 0.975, 1.83872e-12, 7.35487e-08, 0.218018
 4026, 691.001, 0.975, 2.39907e-12, 9.5963e-08, 0.218018
 4056, 696.001, 0.975, 3.12162e-12, 1.24865e-07, 0.218018
 4086, 701.001, 0.975, 4.05082e-12, 1.62033e-07, 0.218018
 4116, 706.001, 0.975, 5.24264e-12, 2.09706e-07, 0.218018
 4146, 711.001, 0.975, 6.76736e-12, 2.70695e-07, 0.218018
 4176, 716.001, 0.975, 8.713e-12, 3.4852e-07, 0.218018
 4206, 721.001, 0.975, 1.11895e-11, 4.47581e-07, 0.218018
 4236, 726.001, 0.975, 1.43341e-11, 5.73362e-07, 0.218018
 4266, 731.001, 0.975, 1.8317e-11, 7.32681e-07, 0.218018
 4296, 736.001, 0.975, 2.33499e-11, 9.33997e-07, 0.218018
 4326, 741.001, 0.975, 2.96945e-11, 1.18778e-06, 0.218018
 4356, 746.001, 0.975, 3.76741e-11, 1.50696e-06, 0.218018
 4386, 751.001, 0.975, 4.7687e-11, 1.90748e-06, 0.218018
 4416, 756.001, 0.975, 6.02231e-11, 2.40892e-06, 0.218018
 4446, 761.001, 0.975, 7.58833e-11, 3.03533e-06, 0.218018
 4476, 766.001, 0.975, 9.54031e-11, 3.81613e-06, 0.218018
 4506, 771.001, 0.975, 1.19682e-10, 4.78726e-06, 0.218018
 4536, 776.001, 0.975, 1.49814e-10, 5.99257e-06, 0.218018
 4566, 781.001, 0.975, 1.87135e-10, 7.48538e-06, 0.218018
 4596, 786.001, 0.975, 2.33261e-10, 9.33045e-06, 0.218018
 4626, 791.001, 0.975, 2.90157e-10, 1.16063e-05, 0.218018
 4656, 796.001, 0.975, 3.60193e-10, 1.44077e-05, 0.218019
 4680, 800.001, 0.975, 4.2759e-10, 1.71036e-05, 0.218018