File: examples/Birch_TGA_Example/Work/Cone_x4pclkgu/birch_tga_1step_5_tga.csv
s,C,g/g,1/s,W/g,W/g
Time,Temp,Mass,MLR,MCC,DSC
 12, 21.0003, 0.999993, 6.11641e-07, 0.0000000E+000, 0.121505
 72, 26.0003, 0.99994, 1.2096e-06, 0.0000000E+000, 0.12284
 132, 31.0003, 0.999838, 2.33562e-06, 0.0000000E+000, 0.125352
 192, 36.0003, 0.999641, 4.40258e-06, 0.0000000E+000, 0.12996
 252, 41.0003, 0.999277, 8.09149e-06, 0.0000000E+000, 0.13818
 312, 46.0003, 0.998617, 1.4457e-05, 0.0000000E+000, 0.152354
 372, 51.0003, 0.997459, 2.49637e-05, 0.0000000E+000, 0.175724
 432, 56.0003, 0.995506, 4.12227e-05, 0.0000000E+000, 0.211832
 492, 61.0003, 0.992381, 6.39249e-05, 0.0000000E+000, 0.262109
 552, 66.0002, 0.987756, 9.03173e-05, 0.0000000E+000, 0.320212
 612, 71.0002, 0.981658, 0.000110681, 0.0000000E+000, 0.364157
 672, 76.0002, 0.974924, 0.000108763, 0.0000000E+000, 0.35746
 732, 81.0003, 0.96925, 7.57684e-05, 0.0000000E+000, 0.280815
 792, 86.0003, 0.966081, 3.09276e-05, 0.0000000E+000, 0.178244
 852, 91.0004, 0.965122, 5.53148e-06, 0.0000000E+000, 0.120447
 912, 96.0004, 0.965004, 2.79825e-07, 0.0000000E+000, 0.108525
 972, 101, 0.965, 2.08746e-09, 0.0000000E+000, 0.107895
 1032, 106, 0.965, 8.80702e-13, 0.0000000E+000, 0.10789
 1092, 111, 0.965, 5.20756e-18, 0.0000000E+000, 0.10789
 1152, 116, 0.965, 5.77881e-26, 0.0000000E+000, 0.10789
 1212, 121, 0.965, 6.81977e-38, 0.0000000E+000, 0.10789
 1272, 126, 0.965, 0.0000000E+000, 0.0000000E+000, 0.10789
 1332, 131, 0.965, 0.0000000E+000, 1.8939e-38, 0.10789
 1392, 136, 0.965, 0.0000000E+000, 8.38401e-38, 0.10789
 1452, 141, 0.965, 0.0000000E+000, 3.58052e-37, 0.10789
 1512, 146, 0.965, 0.0000000E+000, 1.47706e-36, 0.10789
 1572, 151, 0.965, 0.0000000E+000, 5.89304e-36, 0.10789
 1632, 156, 0.965, 0.0000000E+000, 2.27655e-35, 0.10789
 1692, 161, 0.965, 0.0000000E+000, 8.52505e-35, 0.10789
 1752, 166, 0.965, 0.0000000E+000, 3.09784e-34, 0.10789
 1812, 171, 0.965, 2.73365e-38, 1.09346e-33, 0.10789
 1872, 176, 0.965, 9.38196e-38, 3.75278e-33, 0.10789
 1932, 181, 0.965, 3.13365e-37, 1.25346e-32, 0.10789
 1992, 186, 0.965, 1.01953e-36, 4.07813e-32, 0.10789
 2052, 191, 0.965, 3.2338e-36, 1.29352e-31, 0.10789
 2112, 196, 0.965, 1.00078e-35, 4.00313e-31, 0.10789
 2172, 201, 0.965, 3.02426e-35, 1.2097e-30, 0.10789
 2232, 206, 0.965, 8.93047e-35, 3.57219e-30, 0.10789
 2292, 211, 0.965, 2.57879e-34, 1.03152e-29, 0.10789
 2352, 216, 0.965, 7.28692e-34, 2.91477e-29, 0.10789
 2412, 221, 0.965, 2.01624e-33, 8.06495e-29, 0.10789
 2472, 226, 0.965, 5.46619e-33, 2.18647e-28, 0.10789
 2532, 231, 0.965, 1.4529e-32, 5.8116e-28, 0.10789
 2592, 236, 0.965, 3.78834e-32, 1.51533e-27, 0.10789
 2652, 241, 0.965, 9.69541e-32, 3.87816e-27, 0.10789
 2712, 246, 0.965, 2.43681e-31, 9.74726e-27, 0.10789
 2772, 251, 0.965, 6.01787e-31, 2.40715e-26, 0.10789
 2832, 256, 0.965, 1.46098e-30, 5.8439e-26, 0.10789
 2892, 261, 0.965, 3.48844e-30, 1.39538e-25, 0.10789
 2952, 266, 0.965, 8.19614e-30, 3.27846e-25, 0.10789
 3012, 271, 0.965, 1.8957e-29, 7.58281e-25, 0.10789
 3072, 276, 0.965, 4.31816e-29, 1.72726e-24, 0.10789
 3132, 281, 0.965, 9.69117e-29, 3.87647e-24, 0.10789
 3192, 286, 0.965, 2.14375e-28, 8.57501e-24, 0.10789
 3252, 291, 0.965, 4.67585e-28, 1.87034e-23, 0.10789
 3312, 296, 0.965, 1.006e-27, 4.02399e-23, 0.10789
 3372, 301, 0.965, 2.13569e-27, 8.54274e-23, 0.10789
 3432, 306, 0.965, 4.47541e-27, 1.79016e-22, 0.10789
 3492, 311, 0.965, 9.26036e-27, 3.70414e-22, 0.10789
 3552, 316, 0.965, 1.89262e-26, 7.57047e-22, 0.10789
 3612, 321, 0.965, 3.82184e-26, 1.52874e-21, 0.10789
 3672, 326, 0.965, 7.62762e-26, 3.05105e-21, 0.10789
 3732, 331, 0.965, 1.505e-25, 6.02001e-21, 0.10789
 3792, 336, 0.965, 2.93657e-25, 1.17463e-20, 0.10789
 3852, 341, 0.965, 5.66783e-25, 2.26713e-20, 0.10789
 3912, 346, 0.965, 1.08238e-24, 4.32953e-20, 0.10789
 3972, 351, 0.965, 2.0457e-24, 8.18282e-20, 0.10789
 4032, 356, 0.965, 3.82746e-24, 1.53099e-19, 0.10789
 4092, 361, 0.965, 7.0907e-24, 2.83628e-19, 0.10789
 4152, 366, 0.965, 1.301e-23, 5.204e-19, 0.10789
 4212, 371, 0.965, 2.36468e-23, 9.45874e-19, 0.10789
 4272, 376, 0.965, 4.25865e-23, 1.70346e-18, 0.10789
 4332, 381, 0.965, 7.6009e-23, 3.04036e-18, 0.10789
 4392, 386, 0.965, 1.34475e-22, 5.37899e-18, 0.10789
 4452, 391, 0.965, 2.35877e-22, 9.43509e-18, 0.10789
 4512, 396, 0.965, 4.10284e-22, 1.64113e-17, 0.10789
 4572, 401, 0.965, 7.07809e-22, 2.83124e-17, 0.10789
 4632, 406, 0.965, 1.21133e-21, 4.84531e-17, 0.10789
 4692, 411, 0.965, 2.05682e-21, 8.22727e-17, 0.10789
 4752, 416, 0.965, 3.46572e-21, 1.38629e-16, 0.10789
 4812, 421, 0.965, 5.79598e-21, 2.31839e-16, 0.10789
 4872, 426, 0.965, 9.62201e-21, 3.8488e-16, 0.10789
 4932, 431, 0.965, 1.58591e-20, 6.34364e-16, 0.10789
 4992, 436, 0.965, 2.59556e-20, 1.03822e-15, 0.10789
 5052, 441, 0.965, 4.21879e-20, 1.68752e-15, 0.10789
 5112, 446, 0.965, 6.811e-20, 2.7244e-15, 0.10789
 5172, 451, 0.965, 1.09235e-19, 4.3694e-15, 0.10789
 5232, 456, 0.965, 1.7406e-19, 6.96239e-15, 0.10789
 5292, 461, 0.965, 2.756e-19, 1.1024e-14, 0.10789
 5352, 466, 0.965, 4.33671e-19, 1.73468e-14, 0.10789
 5412, 471, 0.965, 6.78259e-19, 2.71303e-14, 0.10789
 5472, 476, 0.965, 1.05448e-18, 4.21791e-14, 0.10789
 5532, 481, 0.965, 1.62982e-18, 6.51927e-14, 0.10789
 5592, 486, 0.965, 2.50466e-18, 1.00186e-13, 0.10789
 5652, 491, 0.965, 3.82752e-18, 1.53101e-13, 0.10789
 5712, 496, 0.965, 5.81689e-18, 2.32676e-13, 0.10789
 5772, 501, 0.965, 8.79258e-18, 3.51703e-13, 0.10789
 5832, 506, 0.965, 1.32202e-17, 5.28809e-13, 0.10789
 5892, 511, 0.965, 1.97744e-17, 7.90976e-13, 0.10789
 5952, 516, 0.965, 2.94274e-17, 1.17709e-12, 0.10789
 6012, 521, 0.965, 4.35738e-17, 1.74295e-12, 0.10789
 6072, 526, 0.965, 6.42047e-17, 2.56819e-12, 0.10789
 6132, 531, 0.965, 9.41486e-17, 3.76595e-12, 0.10789
 6192, 536, 0.965, 1.37406e-16, 5.49626e-12, 0.10789
 6252, 541, 0.965, 1.9961e-16, 7.98442e-12, 0.10789
 6312, 546, 0.965, 2.88655e-16, 1.15462e-11, 0.10789
 6372, 551, 0.965, 4.15559e-16, 1.66223e-11, 0.10789
 6432, 556, 0.965, 5.9563e-16, 2.38252e-11, 0.10789
 6492, 561, 0.965, 8.50053e-16, 3.40021e-11, 0.10789
 6552, 566, 0.965, 1.20802e-15, 4.83209e-11, 0.10789
 6612, 571, 0.965, 1.70961e-15, 6.83842e-11, 0.10789
 6672, 576, 0.965, 2.40958e-15, 9.6383e-11, 0.10789
 6732, 581, 0.965, 3.38252e-15, 1.35301e-10, 0.10789
 6792, 586, 0.965, 4.72961e-15, 1.89185e-10, 0.10789
 6852, 591, 0.965, 6.58758e-15, 2.63503e-10, 0.10789
 6912, 596, 0.965, 9.14052e-15, 3.65621e-10, 0.10789
 6972, 601, 0.965, 1.26354e-14, 5.05416e-10, 0.10789
 7032, 606, 0.965, 1.74023e-14, 6.96093e-10, 0.10789
 7092, 611, 0.965, 2.3881e-14, 9.55241e-10, 0.10789
 7152, 616, 0.965, 3.26552e-14, 1.30621e-09, 0.10789
 7212, 621, 0.965, 4.44972e-14, 1.77989e-09, 0.10789
 7272, 626, 0.965, 6.04253e-14, 2.41701e-09, 0.10789
 7332, 631, 0.965, 8.17777e-14, 3.27111e-09, 0.10789
 7392, 636, 0.965, 1.10308e-13, 4.4123e-09, 0.10789
 7452, 641, 0.965, 1.48304e-13, 5.93217e-09, 0.10789
 7512, 646, 0.965, 1.98749e-13, 7.94994e-09, 0.10789
 7572, 651, 0.965, 2.65508e-13, 1.06203e-08, 0.10789
 7632, 656, 0.965, 3.53589e-13, 1.41436e-08, 0.10789
 7692, 661, 0.965, 4.69448e-13, 1.87779e-08, 0.10789
 7752, 666, 0.965, 6.21392e-13, 2.48557e-08, 0.10789
 7812, 671, 0.965, 8.20075e-13, 3.2803e-08, 0.10789
 7872, 676, 0.965, 1.07913e-12, 4.31651e-08, 0.10789
 7932, 681, 0.965, 1.41593e-12, 5.66372e-08, 0.10789
 7992, 686, 0.965, 1.8526e-12, 7.41039e-08, 0.10789
 8052, 691, 0.965, 2.41718e-12, 9.66874e-08, 0.10789
 8112, 696, 0.965, 3.14519e-12, 1.25807e-07, 0.10789
 8172, 701, 0.965, 4.0814e-12, 1.63256e-07, 0.10789
 8232, 706, 0.965, 5.28222e-12, 2.11289e-07, 0.10789
 8292, 711, 0.965, 6.81844e-12, 2.72738e-07, 0.10789
 8352, 716, 0.965, 8.77876e-12, 3.51151e-07, 0.10789
 8412, 721, 0.965, 1.1274e-11, 4.50959e-07, 0.10789
 8472, 726, 0.965, 1.44422e-11, 5.77689e-07, 0.10789
 8532, 731, 0.965, 1.84553e-11, 7.3821e-07, 0.10789
 8592, 736, 0.965, 2.35261e-11, 9.41045e-07, 0.10789
 8652, 741, 0.965, 2.99186e-11, 1.19674e-06, 0.10789
 8712, 746, 0.965, 3.79584e-11, 1.51834e-06, 0.10789
 8772, 751, 0.965, 4.80469e-11, 1.92188e-06, 0.10789
 8832, 756, 0.965, 6.06775e-11, 2.4271e-06, 0.10789
 8892, 761, 0.965, 7.64558e-11, 3.05823e-06, 0.10789
 8952, 766, 0.965, 9.6123e-11, 3.84492e-06, 0.10789
 9012, 771, 0.965, 1.20585e-10, 4.82338e-06, 0.10789
 9072, 776, 0.965, 1.50945e-10, 6.03778e-06, 0.10789
 9132, 781, 0.965, 1.88546e-10, 7.54186e-06, 0.10789
 9192, 786, 0.965, 2.35021e-10, 9.40085e-06, 0.10789
 9252, 791, 0.965, 2.92346e-10, 1.16938e-05, 0.107891
 9312, 796, 0.965, 3.6291e-10, 1.45164e-05, 0.107891
 9360, 800, 0.965, 4.30816e-10, 1.72326e-05, 0.10789