File: examples/Birch_TGA_Example/Work/Cone_x4pclkgu/birch_tga_1step_2_tga.csv
s,C,g/g,1/s,W/g,W/g
Time,Temp,Mass,MLR,MCC,DSC
 30, 21.0001, 0.999987, 4.80453e-07, 0.0000000E+000, 0.0484218
 180, 26.0001, 0.999883, 9.4801e-07, 0.0000000E+000, 0.0494653
 330, 31.0001, 0.999682, 1.82243e-06, 0.0000000E+000, 0.0514158
 480, 36.0001, 0.999301, 3.40628e-06, 0.0000000E+000, 0.0549465
 630, 41.0001, 0.998602, 6.16185e-06, 0.0000000E+000, 0.0610839
 780, 46.0001, 0.997364, 1.06929e-05, 0.0000000E+000, 0.0711637
 930, 51.0001, 0.995278, 1.75185e-05, 0.0000000E+000, 0.0863168
 1080, 56.0001, 0.992004, 2.63566e-05, 0.0000000E+000, 0.105858
 1230, 61.0001, 0.987387, 3.47561e-05, 0.0000000E+000, 0.124218
 1380, 66.0001, 0.981873, 3.72041e-05, 0.0000000E+000, 0.128986
 1530, 71.0001, 0.976798, 2.85552e-05, 0.0000000E+000, 0.108706
 1680, 76.0001, 0.973677, 1.29016e-05, 0.0000000E+000, 0.0728489
 1830, 81.0001, 0.972641, 2.51929e-06, 0.0000000E+000, 0.0492118
 1980, 86.0001, 0.972505, 1.31928e-07, 0.0000000E+000, 0.0437909
 2130, 91.0001, 0.9725, 8.95175e-10, 0.0000000E+000, 0.0434938
 2280, 96.0001, 0.9725, 2.63279e-13, 0.0000000E+000, 0.0434918
 2430, 101, 0.9725, 6.58164e-19, 0.0000000E+000, 0.0434918
 2580, 106, 0.9725, 1.27292e-27, 0.0000000E+000, 0.0434918
 2730, 111, 0.9725, 0.0000000E+000, 0.0000000E+000, 0.0434918
 2880, 116, 0.9725, 0.0000000E+000, 0.0000000E+000, 0.0434918
 3030, 121, 0.9725, 0.0000000E+000, 0.0000000E+000, 0.0434918
 3180, 126, 0.9725, 0.0000000E+000, 0.0000000E+000, 0.0434918
 3330, 131, 0.9725, 0.0000000E+000, 1.85265e-38, 0.0434918
 3480, 136, 0.9725, 0.0000000E+000, 8.20136e-38, 0.0434918
 3630, 141, 0.9725, 0.0000000E+000, 3.50251e-37, 0.0434918
 3780, 146, 0.9725, 0.0000000E+000, 1.44487e-36, 0.0434918
 3930, 151, 0.9725, 0.0000000E+000, 5.76462e-36, 0.0434918
 4080, 156, 0.9725, 0.0000000E+000, 2.22694e-35, 0.0434918
 4230, 161, 0.9725, 0.0000000E+000, 8.33924e-35, 0.0434918
 4380, 166, 0.9725, 0.0000000E+000, 3.03031e-34, 0.0434918
 4530, 171, 0.9725, 2.67406e-38, 1.06963e-33, 0.0434918
 4680, 176, 0.9725, 9.17743e-38, 3.67097e-33, 0.0434918
 4830, 181, 0.9725, 3.06534e-37, 1.22613e-32, 0.0434918
 4980, 186, 0.9725, 9.97305e-37, 3.98922e-32, 0.0434918
 5130, 191, 0.9725, 3.16329e-36, 1.26532e-31, 0.0434918
 5280, 196, 0.9725, 9.7896e-36, 3.91584e-31, 0.0434918
 5430, 201, 0.9725, 2.95831e-35, 1.18332e-30, 0.0434918
 5580, 206, 0.9725, 8.73571e-35, 3.49428e-30, 0.0434918
 5730, 211, 0.9725, 2.52255e-34, 1.00902e-29, 0.0434918
 5880, 216, 0.9725, 7.12798e-34, 2.85119e-29, 0.0434918
 6030, 221, 0.9725, 1.97226e-33, 7.88904e-29, 0.0434918
 6180, 226, 0.9725, 5.34695e-33, 2.13878e-28, 0.0434918
 6330, 231, 0.9725, 1.42121e-32, 5.68482e-28, 0.0434918
 6480, 236, 0.9725, 3.70569e-32, 1.48228e-27, 0.0434918
 6630, 241, 0.9725, 9.48389e-32, 3.79356e-27, 0.0434918
 6780, 246, 0.9725, 2.38365e-31, 9.5346e-27, 0.0434918
 6930, 251, 0.9725, 5.88657e-31, 2.35463e-26, 0.0434918
 7080, 256, 0.9725, 1.4291e-30, 5.71639e-26, 0.0434919
 7230, 261, 0.9725, 3.41232e-30, 1.36493e-25, 0.0434918
 7380, 266, 0.9725, 8.01729e-30, 3.20692e-25, 0.0434918
 7530, 271, 0.9725, 1.85433e-29, 7.41733e-25, 0.0434918
 7680, 276, 0.9725, 4.22393e-29, 1.68957e-24, 0.0434918
 7830, 281, 0.9725, 9.47967e-29, 3.79187e-24, 0.0434918
 7980, 286, 0.9725, 2.09697e-28, 8.38786e-24, 0.0434918
 8130, 291, 0.9725, 4.5738e-28, 1.82952e-23, 0.0434918
 8280, 296, 0.9725, 9.84041e-28, 3.93616e-23, 0.0434918
 8430, 301, 0.9725, 2.08907e-27, 8.35628e-23, 0.0434918
 8580, 306, 0.9725, 4.37772e-27, 1.75109e-22, 0.0434918
 8730, 311, 0.9725, 9.05822e-27, 3.62329e-22, 0.0434918
 8880, 316, 0.9725, 1.8513e-26, 7.40521e-22, 0.0434918
 9030, 321, 0.9725, 3.73841e-26, 1.49537e-21, 0.0434918
 9180, 326, 0.9725, 7.4611e-26, 2.98444e-21, 0.0434918
 9330, 331, 0.9725, 1.47215e-25, 5.88859e-21, 0.0434918
 9480, 336, 0.9725, 2.87246e-25, 1.14898e-20, 0.0434918
 9630, 341, 0.9725, 5.54409e-25, 2.21764e-20, 0.0434918
 9780, 346, 0.9725, 1.05875e-24, 4.235e-20, 0.0434918
 9930, 351, 0.9725, 2.00104e-24, 8.00416e-20, 0.0434918
 10080, 356, 0.9725, 3.7439e-24, 1.49756e-19, 0.0434919
 10230, 361, 0.9725, 6.93588e-24, 2.77435e-19, 0.0434918
 10380, 366, 0.9725, 1.27259e-23, 5.09037e-19, 0.0434918
 10530, 371, 0.9725, 2.31305e-23, 9.25221e-19, 0.0434918
 10680, 376, 0.9725, 4.16566e-23, 1.66626e-18, 0.0434918
 10830, 381, 0.9725, 7.43492e-23, 2.97397e-18, 0.0434918
 10980, 386, 0.9725, 1.31538e-22, 5.26153e-18, 0.0434918
 11130, 391, 0.9725, 2.30726e-22, 9.22906e-18, 0.0434918
 11280, 396, 0.9725, 4.01324e-22, 1.6053e-17, 0.0434918
 11430, 401, 0.9725, 6.92352e-22, 2.76941e-17, 0.0434918
 11580, 406, 0.9725, 1.18487e-21, 4.73949e-17, 0.0434918
 11730, 411, 0.9725, 2.0119e-21, 8.04759e-17, 0.0434918
 11880, 416, 0.9725, 3.39003e-21, 1.35601e-16, 0.0434918
 12030, 421, 0.9725, 5.6694e-21, 2.26776e-16, 0.0434918
 12180, 426, 0.9725, 9.41186e-21, 3.76475e-16, 0.0434918
 12330, 431, 0.9725, 1.55127e-20, 6.20509e-16, 0.0434918
 12480, 436, 0.9725, 2.53887e-20, 1.01555e-15, 0.0434918
 12630, 441, 0.9725, 4.12664e-20, 1.65066e-15, 0.0434918
 12780, 446, 0.9725, 6.66224e-20, 2.6649e-15, 0.0434918
 12930, 451, 0.9725, 1.06849e-19, 4.27396e-15, 0.0434918
 13080, 456, 0.9725, 1.70258e-19, 6.81032e-15, 0.0434918
 13230, 461, 0.9725, 2.6958e-19, 1.07832e-14, 0.0434918
 13380, 466, 0.9725, 4.24198e-19, 1.69679e-14, 0.0434918
 13530, 471, 0.9725, 6.63443e-19, 2.65377e-14, 0.0434918
 13680, 476, 0.9725, 1.03144e-18, 4.12578e-14, 0.0434918
 13830, 481, 0.9725, 1.59421e-18, 6.37686e-14, 0.0434918
 13980, 486, 0.9725, 2.44995e-18, 9.79979e-14, 0.0434918
 14130, 491, 0.9725, 3.74391e-18, 1.49756e-13, 0.0434918
 14280, 496, 0.9725, 5.68982e-18, 2.27593e-13, 0.0434918
 14430, 501, 0.9725, 8.6005e-18, 3.4402e-13, 0.0434918
 14580, 506, 0.9725, 1.29314e-17, 5.17257e-13, 0.0434918
 14730, 511, 0.9725, 1.93424e-17, 7.73696e-13, 0.0434918
 14880, 516, 0.9725, 2.87845e-17, 1.15138e-12, 0.0434918
 15030, 521, 0.9725, 4.26219e-17, 1.70488e-12, 0.0434918
 15180, 526, 0.9725, 6.2802e-17, 2.51208e-12, 0.0434918
 15330, 531, 0.9725, 9.20918e-17, 3.68367e-12, 0.0434918
 15480, 536, 0.9725, 1.34404e-16, 5.37618e-12, 0.0434918
 15630, 541, 0.9725, 1.95249e-16, 7.80998e-12, 0.0434918
 15780, 546, 0.9725, 2.82349e-16, 1.1294e-11, 0.0434918
 15930, 551, 0.9725, 4.06479e-16, 1.62592e-11, 0.0434918
 16080, 556, 0.9725, 5.82616e-16, 2.33046e-11, 0.0434918
 16230, 561, 0.9725, 8.31481e-16, 3.32592e-11, 0.0434918
 16380, 566, 0.9725, 1.18163e-15, 4.72652e-11, 0.0434918
 16530, 571, 0.9725, 1.67225e-15, 6.68901e-11, 0.0434918
 16680, 576, 0.9725, 2.35693e-15, 9.42771e-11, 0.0434918
 16830, 581, 0.9725, 3.30861e-15, 1.32345e-10, 0.0434918
 16980, 586, 0.9725, 4.62627e-15, 1.85051e-10, 0.0434918
 17130, 591, 0.9725, 6.44365e-15, 2.57746e-10, 0.0434918
 17280, 596, 0.9725, 8.9408e-15, 3.57632e-10, 0.0434918
 17430, 601, 0.9725, 1.23593e-14, 4.94372e-10, 0.0434918
 17580, 606, 0.9725, 1.70221e-14, 6.80883e-10, 0.0434918
 17730, 611, 0.9725, 2.33592e-14, 9.34368e-10, 0.0434918
 17880, 616, 0.9725, 3.19417e-14, 1.27767e-09, 0.0434918
 18030, 621, 0.9725, 4.35249e-14, 1.741e-09, 0.0434918
 18180, 626, 0.9725, 5.91049e-14, 2.3642e-09, 0.0434918
 18330, 631, 0.9725, 7.99907e-14, 3.19963e-09, 0.0434918
 18480, 636, 0.9725, 1.07897e-13, 4.31588e-09, 0.0434918
 18630, 641, 0.9725, 1.45064e-13, 5.80254e-09, 0.0434918
 18780, 646, 0.9725, 1.94405e-13, 7.77622e-09, 0.0434918
 18930, 651, 0.9725, 2.59706e-13, 1.03883e-08, 0.0434918
 19080, 656, 0.9725, 3.45862e-13, 1.38345e-08, 0.0434918
 19230, 661, 0.9725, 4.59189e-13, 1.83676e-08, 0.0434918
 19380, 666, 0.9725, 6.07813e-13, 2.43125e-08, 0.0434918
 19530, 671, 0.9725, 8.02154e-13, 3.20862e-08, 0.0434918
 19680, 676, 0.9725, 1.05554e-12, 4.22218e-08, 0.0434918
 19830, 681, 0.9725, 1.38499e-12, 5.53995e-08, 0.0434919
 19980, 686, 0.9725, 1.81211e-12, 7.24845e-08, 0.0434918
 20130, 691, 0.9725, 2.36436e-12, 9.45744e-08, 0.0434917
 20280, 696, 0.9725, 3.07645e-12, 1.23058e-07, 0.0434918
 20430, 701, 0.9725, 3.99221e-12, 1.59688e-07, 0.0434919
 20580, 706, 0.9725, 5.16678e-12, 2.06671e-07, 0.0434918
 20730, 711, 0.9725, 6.66943e-12, 2.66777e-07, 0.0434918
 20880, 716, 0.9725, 8.58691e-12, 3.43476e-07, 0.0434918
 21030, 721, 0.9725, 1.10276e-11, 4.41104e-07, 0.0434918
 21180, 726, 0.9725, 1.41266e-11, 5.65064e-07, 0.0434918
 21330, 731, 0.9725, 1.80519e-11, 7.22077e-07, 0.0434918
 21480, 736, 0.9725, 2.3012e-11, 9.20479e-07, 0.0434918
 21630, 741, 0.9725, 2.92647e-11, 1.17059e-06, 0.0434918
 21780, 746, 0.9725, 3.71288e-11, 1.48515e-06, 0.0434918
 21930, 751, 0.9725, 4.69968e-11, 1.87987e-06, 0.0434918
 22080, 756, 0.9725, 5.93514e-11, 2.37406e-06, 0.0434919
 22230, 761, 0.9725, 7.47849e-11, 2.99139e-06, 0.0434918
 22380, 766, 0.9725, 9.40221e-11, 3.76089e-06, 0.0434919
 22530, 771, 0.9725, 1.17949e-10, 4.71796e-06, 0.0434919
 22680, 776, 0.9725, 1.47646e-10, 5.90582e-06, 0.0434918
 22830, 781, 0.9725, 1.84426e-10, 7.37702e-06, 0.0434919
 22980, 786, 0.9725, 2.29884e-10, 9.19538e-06, 0.0434919
 23130, 791, 0.9725, 2.85956e-10, 1.14382e-05, 0.0434919
 23280, 796, 0.9725, 3.54978e-10, 1.41991e-05, 0.0434918
 23400, 800, 0.9725, 4.214e-10, 1.6856e-05, 0.0434919