File: examples/Birch_TGA_Example/Work/Cone_x4pclkgu/birch_tga_1step_20_tga.csv
s,C,g/g,1/s,W/g,W/g
Time,Temp,Mass,MLR,MCC,DSC
 3, 21.0014, 0.999999, 2.18432e-07, 0.0000000E+000, 0.459601
 18, 26.0014, 0.999995, 4.32468e-07, 0.0000000E+000, 0.460078
 33, 31.0014, 0.999985, 8.36909e-07, 0.0000000E+000, 0.460981
 48, 36.0014, 0.999968, 1.58425e-06, 0.0000000E+000, 0.462648
 63, 41.0014, 0.999935, 2.9349e-06, 0.0000000E+000, 0.465658
 78, 46.0014, 0.999875, 5.32078e-06, 0.0000000E+000, 0.470974
 93, 51.0014, 0.999767, 9.43249e-06, 0.0000000E+000, 0.480128
 108, 56.0014, 0.999578, 1.63183e-05, 0.0000000E+000, 0.495447
 123, 61.0014, 0.999256, 2.74414e-05, 0.0000000E+000, 0.520169
 138, 66.0014, 0.998725, 4.45431e-05, 0.0000000E+000, 0.558128
 153, 71.0013, 0.997882, 6.89739e-05, 0.0000000E+000, 0.612238
 168, 76.0013, 0.996621, 9.99575e-05, 0.0000000E+000, 0.680587
 183, 81.0013, 0.994879, 0.000131523, 0.0000000E+000, 0.749574
 198, 86.0012, 0.992741, 0.000149884, 0.0000000E+000, 0.788117
 213, 91.0013, 0.990538, 0.00013763, 0.0000000E+000, 0.757287
 228, 96.0013, 0.988788, 9.13137e-05, 0.0000000E+000, 0.65002
 243, 101.001, 0.98784, 3.72118e-05, 0.0000000E+000, 0.526279
 258, 106.001, 0.987544, 7.33278e-06, 0.0000000E+000, 0.458275
 273, 111.001, 0.987502, 4.9318e-07, 0.0000000E+000, 0.442749
 288, 116.001, 0.9875, 6.85133e-09, 0.0000000E+000, 0.441646
 303, 121.001, 0.9875, 9.59621e-12, 0.0000000E+000, 0.441631
 318, 126.001, 0.9875, 4.90975e-16, 0.0000000E+000, 0.441631
 333, 131.001, 0.9875, 2.20505e-22, 1.90304e-38, 0.441631
 348, 136.001, 0.9875, 1.19e-31, 8.42454e-38, 0.441631
 363, 141.001, 0.9875, 0.0000000E+000, 3.59786e-37, 0.441631
 378, 146.001, 0.9875, 0.0000000E+000, 1.48423e-36, 0.441631
 393, 151.001, 0.9875, 0.0000000E+000, 5.9217e-36, 0.441631
 408, 156.001, 0.9875, 0.0000000E+000, 2.28764e-35, 0.441631
 423, 161.001, 0.9875, 0.0000000E+000, 8.56666e-35, 0.441631
 438, 166.001, 0.9875, 0.0000000E+000, 3.11298e-34, 0.441631
 453, 171.001, 0.9875, 2.74704e-38, 1.09882e-33, 0.441631
 468, 176.001, 0.9875, 9.42799e-38, 3.77119e-33, 0.441631
 483, 181.001, 0.9875, 3.14905e-37, 1.25962e-32, 0.441631
 498, 186.001, 0.9875, 1.02455e-36, 4.0982e-32, 0.441631
 513, 191.001, 0.9875, 3.24974e-36, 1.2999e-31, 0.441631
 528, 196.001, 0.9875, 1.00572e-35, 4.02289e-31, 0.441631
 543, 201.001, 0.9875, 3.0392e-35, 1.21568e-30, 0.441631
 558, 206.001, 0.9875, 8.97466e-35, 3.58987e-30, 0.441631
 573, 211.001, 0.9875, 2.59157e-34, 1.03663e-29, 0.441631
 588, 216.001, 0.9875, 7.32307e-34, 2.92923e-29, 0.441631
 603, 221.001, 0.9875, 2.02625e-33, 8.10501e-29, 0.441631
 618, 226.001, 0.9875, 5.49337e-33, 2.19735e-28, 0.441631
 633, 231.001, 0.9875, 1.46013e-32, 5.84053e-28, 0.441631
 648, 236.001, 0.9875, 3.80722e-32, 1.52289e-27, 0.441631
 663, 241.001, 0.9875, 9.74378e-32, 3.89751e-27, 0.441631
 678, 246.001, 0.9875, 2.44899e-31, 9.79594e-27, 0.441631
 693, 251.001, 0.9875, 6.04795e-31, 2.41918e-26, 0.441631
 708, 256.001, 0.9875, 1.46829e-30, 5.87315e-26, 0.441631
 723, 261.001, 0.9875, 3.50592e-30, 1.40237e-25, 0.441631
 738, 266.001, 0.9875, 8.23723e-30, 3.29489e-25, 0.441631
 753, 271.001, 0.9875, 1.90521e-29, 7.62086e-25, 0.441631
 768, 276.001, 0.9875, 4.33985e-29, 1.73594e-24, 0.441631
 783, 281.001, 0.9875, 9.73988e-29, 3.89595e-24, 0.441631
 798, 286.001, 0.9875, 2.15454e-28, 8.61814e-24, 0.441631
 813, 291.001, 0.9875, 4.6994e-28, 1.87976e-23, 0.441631
 828, 296.001, 0.9875, 1.01107e-27, 4.04426e-23, 0.441631
 843, 301.001, 0.9875, 2.14645e-27, 8.58582e-23, 0.441631
 858, 306.001, 0.9875, 4.49799e-27, 1.7992e-22, 0.441631
 873, 311.001, 0.9875, 9.30712e-27, 3.72285e-22, 0.441631
 888, 316.001, 0.9875, 1.90218e-26, 7.60872e-22, 0.441631
 903, 321.001, 0.9875, 3.84117e-26, 1.53647e-21, 0.441631
 918, 326.001, 0.9875, 7.66621e-26, 3.06648e-21, 0.441631
 933, 331.001, 0.9875, 1.51262e-25, 6.05049e-21, 0.441631
 948, 336.001, 0.9875, 2.95145e-25, 1.18058e-20, 0.441631
 963, 341.001, 0.9875, 5.69656e-25, 2.27862e-20, 0.441631
 978, 346.001, 0.9875, 1.08787e-24, 4.35149e-20, 0.441631
 993, 351.001, 0.9875, 2.05609e-24, 8.22435e-20, 0.441631
 1008, 356.001, 0.9875, 3.8469e-24, 1.53876e-19, 0.441631
 1023, 361.001, 0.9875, 7.12672e-24, 2.85069e-19, 0.441631
 1038, 366.001, 0.9875, 1.30761e-23, 5.23045e-19, 0.441631
 1053, 371.001, 0.9875, 2.37671e-23, 9.50685e-19, 0.441631
 1068, 376.001, 0.9875, 4.28032e-23, 1.71213e-18, 0.441631
 1083, 381.001, 0.9875, 7.6396e-23, 3.05584e-18, 0.441631
 1098, 386.001, 0.9875, 1.3516e-22, 5.40639e-18, 0.441631
 1113, 391.001, 0.9875, 2.37079e-22, 9.48318e-18, 0.441631
 1128, 396.001, 0.9875, 4.12376e-22, 1.6495e-17, 0.441631
 1143, 401.001, 0.9875, 7.1142e-22, 2.84568e-17, 0.441631
 1158, 406.001, 0.9875, 1.21751e-21, 4.87004e-17, 0.441631
 1173, 411.001, 0.9875, 2.06732e-21, 8.26928e-17, 0.441631
 1188, 416.001, 0.9875, 3.48342e-21, 1.39337e-16, 0.441631
 1203, 421.001, 0.9875, 5.8256e-21, 2.33024e-16, 0.441631
 1218, 426.001, 0.9875, 9.6712e-21, 3.86848e-16, 0.441631
 1233, 431.001, 0.9875, 1.59402e-20, 6.37609e-16, 0.441631
 1248, 436.001, 0.9875, 2.60884e-20, 1.04354e-15, 0.441631
 1263, 441.001, 0.9875, 4.24038e-20, 1.69615e-15, 0.441631
 1278, 446.001, 0.9875, 6.84588e-20, 2.73835e-15, 0.441631
 1293, 451.001, 0.9875, 1.09794e-19, 4.39178e-15, 0.441631
 1308, 456.001, 0.9875, 1.74952e-19, 6.99807e-15, 0.441631
 1323, 461.001, 0.9875, 2.77013e-19, 1.10805e-14, 0.441631
 1338, 466.001, 0.9875, 4.35895e-19, 1.74358e-14, 0.441631
 1353, 471.001, 0.9875, 6.81738e-19, 2.72695e-14, 0.441631
 1368, 476.001, 0.9875, 1.05989e-18, 4.23956e-14, 0.441631
 1383, 481.001, 0.9875, 1.63818e-18, 6.55273e-14, 0.441631
 1398, 486.001, 0.9875, 2.51752e-18, 1.00701e-13, 0.441631
 1413, 491.001, 0.9875, 3.84717e-18, 1.53887e-13, 0.441631
 1428, 496.001, 0.9875, 5.84677e-18, 2.33871e-13, 0.441631
 1443, 501.001, 0.9875, 8.83777e-18, 3.53511e-13, 0.441631
 1458, 506.001, 0.9875, 1.32882e-17, 5.31528e-13, 0.441631
 1473, 511.001, 0.9875, 1.98761e-17, 7.95043e-13, 0.441631
 1488, 516.001, 0.9875, 2.95787e-17, 1.18315e-12, 0.441631
 1503, 521.001, 0.9875, 4.3798e-17, 1.75192e-12, 0.441631
 1518, 526.001, 0.9875, 6.45351e-17, 2.5814e-12, 0.441631
 1533, 531.001, 0.9875, 9.46333e-17, 3.78533e-12, 0.441631
 1548, 536.001, 0.9875, 1.38114e-16, 5.52456e-12, 0.441631
 1563, 541.001, 0.9875, 2.00639e-16, 8.02554e-12, 0.441631
 1578, 546.001, 0.9875, 2.90143e-16, 1.16057e-11, 0.441631
 1593, 551.001, 0.9875, 4.177e-16, 1.6708e-11, 0.441631
 1608, 556.001, 0.9875, 5.987e-16, 2.3948e-11, 0.441631
 1623, 561.001, 0.9875, 8.54436e-16, 3.41774e-11, 0.441631
 1638, 566.001, 0.9875, 1.21425e-15, 4.85701e-11, 0.441631
 1653, 571.001, 0.9875, 1.71842e-15, 6.87369e-11, 0.441631
 1668, 576.001, 0.9875, 2.42201e-15, 9.68803e-11, 0.441631
 1683, 581.001, 0.9875, 3.39997e-15, 1.35999e-10, 0.441631
 1698, 586.001, 0.9875, 4.75403e-15, 1.90161e-10, 0.441631
 1713, 591.001, 0.9875, 6.62159e-15, 2.64864e-10, 0.441631
 1728, 596.001, 0.9875, 9.18772e-15, 3.67509e-10, 0.441631
 1743, 601.001, 0.9875, 1.27007e-14, 5.08026e-10, 0.441631
 1758, 606.001, 0.9875, 1.74922e-14, 6.99688e-10, 0.441631
 1773, 611.001, 0.9875, 2.40044e-14, 9.60176e-10, 0.441631
 1788, 616.001, 0.9875, 3.2824e-14, 1.31296e-09, 0.441631
 1803, 621.001, 0.9875, 4.47272e-14, 1.78909e-09, 0.441631
 1818, 626.001, 0.9875, 6.07377e-14, 2.42951e-09, 0.441631
 1833, 631.001, 0.9875, 8.22005e-14, 3.28802e-09, 0.441631
 1848, 636.001, 0.9875, 1.10878e-13, 4.43512e-09, 0.441631
 1863, 641.001, 0.9875, 1.49071e-13, 5.96286e-09, 0.441631
 1878, 646.001, 0.9875, 1.99777e-13, 7.99107e-09, 0.441631
 1893, 651.001, 0.9875, 2.66882e-13, 1.06753e-08, 0.441631
 1908, 656.001, 0.9875, 3.55419e-13, 1.42168e-08, 0.441631
 1923, 661.001, 0.9875, 4.71878e-13, 1.88751e-08, 0.441631
 1938, 666.001, 0.9875, 6.24609e-13, 2.49844e-08, 0.441631
 1953, 671.001, 0.9875, 8.24322e-13, 3.29729e-08, 0.441631
 1968, 676.001, 0.9875, 1.08472e-12, 4.33886e-08, 0.441631
 1983, 681.001, 0.9875, 1.42326e-12, 5.69306e-08, 0.441631
 1998, 686.001, 0.9875, 1.8622e-12, 7.44878e-08, 0.441631
 2013, 691.001, 0.9875, 2.42971e-12, 9.71883e-08, 0.441631
 2028, 696.001, 0.9875, 3.16148e-12, 1.26459e-07, 0.441631
 2043, 701.001, 0.9875, 4.10255e-12, 1.64102e-07, 0.441631
 2058, 706.001, 0.9875, 5.3096e-12, 2.12384e-07, 0.441631
 2073, 711.001, 0.9875, 6.85379e-12, 2.74152e-07, 0.441631
 2088, 716.001, 0.9875, 8.82428e-12, 3.52971e-07, 0.441631
 2103, 721.001, 0.9875, 1.13325e-11, 4.53298e-07, 0.441631
 2118, 726.001, 0.9875, 1.45171e-11, 5.80685e-07, 0.441631
 2133, 731.001, 0.9875, 1.8551e-11, 7.42039e-07, 0.441631
 2148, 736.001, 0.9875, 2.36482e-11, 9.45927e-07, 0.441631
 2163, 741.001, 0.9875, 3.00738e-11, 1.20295e-06, 0.441631
 2178, 746.001, 0.9875, 3.81554e-11, 1.52622e-06, 0.441631
 2193, 751.001, 0.9875, 4.82963e-11, 1.93185e-06, 0.441631
 2208, 756.001, 0.9875, 6.09925e-11, 2.4397e-06, 0.441631
 2223, 761.001, 0.9875, 7.68527e-11, 3.07411e-06, 0.441631
 2238, 766.001, 0.9875, 9.6622e-11, 3.86488e-06, 0.441631
 2253, 771.001, 0.9875, 1.21211e-10, 4.84843e-06, 0.441631
 2268, 776.001, 0.9875, 1.51728e-10, 6.06914e-06, 0.441631
 2283, 781.001, 0.9875, 1.89526e-10, 7.58103e-06, 0.441631
 2298, 786.001, 0.9875, 2.36242e-10, 9.44968e-06, 0.441631
 2313, 791.001, 0.9875, 2.93864e-10, 1.17546e-05, 0.441631
 2328, 796.001, 0.9875, 3.64796e-10, 1.45918e-05, 0.441631
 2340, 800.001, 0.9875, 4.33054e-10, 1.73222e-05, 0.441631