File: examples/Birch_TGA_Example/Work/Cone_2abpo9o1/birch_tga_1step_10_tga.csv
s,C,g/g,1/s,W/g,W/g
Time,Temp,Mass,MLR,MCC,DSC
 6, 21.0007, 0.999998, 4.369e-07, 3.70286e-28, 0.236481
 36, 26.0007, 0.999979, 8.64679e-07, 1.92952e-27, 0.237436
 66, 31.0007, 0.999942, 1.67208e-06, 9.52332e-27, 0.239238
 96, 36.0007, 0.999872, 3.16074e-06, 4.46376e-26, 0.242557
 126, 41.0007, 0.99974, 5.83993e-06, 1.99185e-25, 0.248528
 156, 46.0007, 0.999501, 1.0536e-05, 8.48125e-25, 0.258988
 186, 51.0007, 0.999076, 1.85149e-05, 3.45344e-24, 0.276746
 216, 56.0007, 0.99834, 3.15376e-05, 1.34746e-23, 0.305701
 246, 61.0006, 0.997112, 5.1621e-05, 5.0476e-23, 0.350289
 276, 66.0006, 0.995158, 8.00034e-05, 1.81862e-22, 0.413148
 306, 71.0006, 0.992247, 0.000114589, 6.31279e-22, 0.489374
 336, 76.0005, 0.988312, 0.000145893, 2.11457e-21, 0.557452
 366, 81.0005, 0.983712, 0.000155296, 6.84545e-21, 0.575505
 396, 86.0005, 0.979394, 0.000125686, 2.14477e-20, 0.505472
 426, 91.0006, 0.976476, 6.69e-05, 6.51244e-20, 0.370411
 456, 96.0007, 0.975266, 1.88216e-05, 1.91884e-19, 0.260783
 486, 101.001, 0.975018, 2.02144e-06, 5.49269e-19, 0.222604
 516, 106.001, 0.975, 5.13397e-08, 1.52927e-18, 0.218135
 546, 111.001, 0.975, 1.53537e-10, 4.14578e-18, 0.218019
 576, 116.001, 0.975, 1.97906e-14, 1.09547e-17, 0.218018
 606, 121.001, 0.975, 2.6887e-20, 2.82413e-17, 0.218018
 636, 126.001, 0.975, 1.77749e-21, 7.10996e-17, 0.218018
 666, 131.001, 0.975, 4.37389e-21, 1.74955e-16, 0.218018
 696, 136.001, 0.975, 1.05286e-20, 4.21143e-16, 0.218018
 726, 141.001, 0.975, 2.48119e-20, 9.92477e-16, 0.218018
 756, 146.001, 0.975, 5.72888e-20, 2.29155e-15, 0.218018
 786, 151.001, 0.975, 1.29691e-19, 5.18764e-15, 0.218018
 816, 156.001, 0.975, 2.8806e-19, 1.15224e-14, 0.218018
 846, 161.001, 0.975, 6.28162e-19, 2.51265e-14, 0.218018
 876, 166.001, 0.975, 1.34571e-18, 5.38284e-14, 0.218018
 906, 171.001, 0.975, 2.83388e-18, 1.13355e-13, 0.218018
 936, 176.001, 0.975, 5.86961e-18, 2.34785e-13, 0.218018
 966, 181.001, 0.975, 1.1964e-17, 4.78559e-13, 0.218018
 996, 186.001, 0.975, 2.40107e-17, 9.60429e-13, 0.218018
 1026, 191.001, 0.975, 4.74698e-17, 1.89879e-12, 0.218018
 1056, 196.001, 0.975, 9.24953e-17, 3.69981e-12, 0.218018
 1086, 201.001, 0.975, 1.7771e-16, 7.1084e-12, 0.218018
 1116, 206.001, 0.975, 3.36811e-16, 1.34724e-11, 0.218018
 1146, 211.001, 0.975, 6.29977e-16, 2.51991e-11, 0.218018
 1176, 216.001, 0.975, 1.16333e-15, 4.65333e-11, 0.218018
 1206, 221.001, 0.975, 2.12174e-15, 8.48696e-11, 0.218018
 1236, 226.001, 0.975, 3.82342e-15, 1.52937e-10, 0.218018
 1266, 231.001, 0.975, 6.80986e-15, 2.72395e-10, 0.218018
 1296, 236.001, 0.975, 1.19923e-14, 4.79691e-10, 0.218018
 1326, 241.001, 0.975, 2.08874e-14, 8.35497e-10, 0.218018
 1356, 246.001, 0.975, 3.59936e-14, 1.43975e-09, 0.218018
 1386, 251.001, 0.975, 6.13844e-14, 2.45538e-09, 0.218018
 1416, 256.001, 0.975, 1.03636e-13, 4.14542e-09, 0.218018
 1446, 261.001, 0.975, 1.73261e-13, 6.93045e-09, 0.218018
 1476, 266.001, 0.975, 2.86916e-13, 1.14766e-08, 0.218018
 1506, 271.001, 0.975, 4.70741e-13, 1.88296e-08, 0.218018
 1536, 276.001, 0.975, 7.65409e-13, 3.06164e-08, 0.218018
 1566, 281.001, 0.975, 1.23366e-12, 4.93464e-08, 0.218018
 1596, 286.001, 0.975, 1.97147e-12, 7.88588e-08, 0.218018
 1626, 291.001, 0.975, 3.12447e-12, 1.24979e-07, 0.218018
 1656, 296.001, 0.975, 4.91188e-12, 1.96475e-07, 0.218018
 1686, 301.001, 0.975, 7.66122e-12, 3.06449e-07, 0.218018
 1716, 306.001, 0.975, 1.18581e-11, 4.74324e-07, 0.218018
 1746, 311.001, 0.975, 1.82173e-11, 7.28691e-07, 0.218018
 1776, 316.001, 0.975, 2.77835e-11, 1.11134e-06, 0.218018
 1806, 321.001, 0.975, 4.20733e-11, 1.68293e-06, 0.218018
 1836, 326.001, 0.975, 6.32728e-11, 2.53091e-06, 0.218018
 1866, 331.001, 0.975, 9.45137e-11, 3.78055e-06, 0.218018
 1896, 336.001, 0.975, 1.40253e-10, 5.61011e-06, 0.218018
 1926, 341.001, 0.975, 2.06793e-10, 8.27174e-06, 0.218018
 1956, 346.001, 0.975, 3.02997e-10, 1.21199e-05, 0.218018
 1986, 351.001, 0.975, 4.41248e-10, 1.76499e-05, 0.218019
 2016, 356.001, 0.975, 6.38751e-10, 2.555e-05, 0.218019
 2046, 361.001, 0.975, 9.19279e-10, 3.67712e-05, 0.218019
 2076, 366.001, 0.975, 1.3155e-09, 5.26199e-05, 0.218019
 2106, 371.001, 0.975, 1.87204e-09, 7.48817e-05, 0.218019
 2136, 376.001, 0.975, 2.6496e-09, 0.000105984, 0.218019
 2166, 381.001, 0.975, 3.73027e-09, 0.000149211, 0.218019
 2196, 386.001, 0.975, 5.2245e-09, 0.00020898, 0.21802
 2226, 391.001, 0.974999, 7.28027e-09, 0.000291211, 0.21802
 2256, 396.001, 0.974999, 1.00948e-08, 0.000403791, 0.218021
 2286, 401.001, 0.974999, 1.39296e-08, 0.000557185, 0.218022
 2316, 406.001, 0.974998, 1.91304e-08, 0.000765215, 0.218023
 2346, 411.001, 0.974998, 2.61513e-08, 0.00104605, 0.218025
 2376, 416.001, 0.974997, 3.55871e-08, 0.00142348, 0.218027
 2406, 421.001, 0.974995, 4.82131e-08, 0.00192852, 0.21803
 2436, 426.001, 0.974994, 6.50355e-08, 0.00260142, 0.218034
 2466, 431.001, 0.974991, 8.73553e-08, 0.00349421, 0.218039
 2496, 436.001, 0.974988, 1.16848e-07, 0.00467392, 0.218046
 2526, 441.001, 0.974984, 1.55662e-07, 0.00622649, 0.218055
 2556, 446.001, 0.974979, 2.06544e-07, 0.00826177, 0.218068
 2586, 451.001, 0.974972, 2.72989e-07, 0.0109196, 0.218083
 2616, 456.001, 0.974962, 3.59431e-07, 0.0143772, 0.218104
 2646, 461.001, 0.97495, 4.71472e-07, 0.0188589, 0.21813
 2676, 466.001, 0.974934, 6.1617e-07, 0.0246468, 0.218164
 2706, 471.001, 0.974913, 8.02379e-07, 0.0320952, 0.218208
 2736, 476.001, 0.974885, 1.04118e-06, 0.0416471, 0.218264
 2766, 481.001, 0.974849, 1.34637e-06, 0.0538549, 0.218336
 2796, 486.001, 0.974803, 1.73512e-06, 0.0694047, 0.218426
 2826, 491.001, 0.974744, 2.22866e-06, 0.0891465, 0.218542
 2856, 496.001, 0.974668, 2.85323e-06, 0.114129, 0.218687
 2886, 501.001, 0.974571, 3.64108e-06, 0.145643, 0.218871
 2916, 506.001, 0.974448, 4.63181e-06, 0.185273, 0.219101
 2946, 511.001, 0.974291, 5.87381e-06, 0.234953, 0.21939
 2976, 516.001, 0.974092, 7.42606e-06, 0.297042, 0.219749
 3006, 521.001, 0.973842, 9.3602e-06, 0.374408, 0.220197
 3036, 526.001, 0.973526, 1.1763e-05, 0.470519, 0.220752
 3066, 531.001, 0.97313, 1.47391e-05, 0.589564, 0.221438
 3096, 536.001, 0.972635, 1.84144e-05, 0.736576, 0.222284
 3126, 541.001, 0.972017, 2.29397e-05, 0.917587, 0.223324
 3156, 546.001, 0.971248, 2.84949e-05, 1.1398, 0.224599
 3186, 551.001, 0.970295, 3.5294e-05, 1.41176, 0.226155
 3216, 556.001, 0.969115, 4.35897e-05, 1.74359, 0.228051
 3246, 561.001, 0.967661, 5.368e-05, 2.1472, 0.230352
 3276, 566.001, 0.965873, 6.59132e-05, 2.63653, 0.233135
 3306, 571.001, 0.963681, 8.06945e-05, 3.22778, 0.236492
 3336, 576.001, 0.961001, 9.84916e-05, 3.93966, 0.240524
 3366, 581.001, 0.957736, 0.000119839, 4.79358, 0.245348
 3396, 586.001, 0.953769, 0.000145344, 5.81376, 0.251097
 3426, 591.001, 0.948966, 0.000175682, 7.02729, 0.257915
 3456, 596.001, 0.943172, 0.0002116, 8.46399, 0.265963
 3486, 601.001, 0.936206, 0.0002539, 10.156, 0.275408
 3516, 606.001, 0.927865, 0.000303425, 12.137, 0.286423
 3546, 611.001, 0.917919, 0.000361028, 14.4411, 0.299178
 3576, 616.001, 0.906114, 0.000427525, 17.101, 0.313827
 3606, 621.001, 0.892171, 0.000503625, 20.145, 0.330492
 3636, 626.001, 0.875794, 0.000589844, 23.5938, 0.349239
 3666, 631.001, 0.856676, 0.000686378, 27.4551, 0.370047
 3696, 636.001, 0.83451, 0.000792954, 31.7181, 0.392775
 3726, 641.001, 0.809006, 0.00090864, 36.3456, 0.417112
 3756, 646.001, 0.779917, 0.00103164, 41.2656, 0.442531
 3786, 651.001, 0.747062, 0.00115908, 46.3631, 0.468238
 3816, 656.001, 0.710368, 0.00128679, 51.4715, 0.493129
 3846, 661.001, 0.669906, 0.0014092, 56.3678, 0.515763
 3876, 666.001, 0.625937, 0.00151931, 60.7725, 0.534374
 3906, 671.001, 0.578951, 0.00160894, 64.3574, 0.546931
 3936, 676.001, 0.529695, 0.00166915, 66.7661, 0.551277
 3966, 681.001, 0.479184, 0.00169119, 67.6475, 0.545355
 3996, 686.001, 0.42868, 0.00166762, 66.7049, 0.527517
 4026, 691.001, 0.37963, 0.00159389, 63.7556, 0.4969
 4056, 696.001, 0.333553, 0.0014698, 58.7918, 0.453806
 4086, 701.001, 0.291896, 0.00130072, 52.0289, 0.399974
 4116, 706.001, 0.25585, 0.00109799, 43.9198, 0.338636
 4146, 711.001, 0.226192, 0.000877987, 35.1195, 0.274253
 4176, 716.001, 0.203155, 0.000659796, 26.3919, 0.211872
 4206, 721.001, 0.186403, 0.000461796, 18.4718, 0.156219
 4236, 726.001, 0.175105, 0.000297961, 11.9184, 0.110761
 4266, 731.001, 0.168113, 0.00017518, 7.00719, 0.0770335
 4296, 736.001, 0.164191, 9.26187e-05, 3.70475, 0.0545345
 4326, 741.001, 0.162223, 4.3383e-05, 1.73532, 0.041203
 4356, 746.001, 0.161353, 1.77018e-05, 0.708072, 0.0342858
 4386, 751.001, 0.16102, 6.1733e-06, 0.246932, 0.0311941
 4416, 756.001, 0.160912, 1.80089e-06, 0.0720357, 0.0300255
 4446, 761.001, 0.160883, 4.28965e-07, 0.0171586, 0.02966
 4476, 766.001, 0.160876, 8.11896e-08, 0.00324759, 0.0295678
 4506, 771.001, 0.160875, 1.18426e-08, 0.000473705, 0.0295493
 4536, 776.001, 0.160875, 1.28637e-09, 5.14548e-05, 0.0295465
 4566, 781.001, 0.160875, 1.00129e-10, 4.00518e-06, 0.0295462
 4596, 786.001, 0.160875, 5.34992e-12, 2.13997e-07, 0.0295462
 4626, 791.001, 0.160875, 1.86994e-13, 7.47974e-09, 0.0295462
 4656, 796.001, 0.160875, 4.05194e-15, 1.62077e-10, 0.0295463
 4680, 800.001, 0.160875, 1.28656e-16, 5.14623e-12, 0.0295462