File: examples/Birch_TGA_Example/Work/Cone_2abpo9o1/birch_tga_1step_2_tga.csv
s,C,g/g,1/s,W/g,W/g
Time,Temp,Mass,MLR,MCC,DSC
 30, 21.0001, 0.999987, 4.80453e-07, 3.65008e-28, 0.0484218
 180, 26.0001, 0.999883, 9.4801e-07, 1.902e-27, 0.0494653
 330, 31.0001, 0.999682, 1.82243e-06, 9.38742e-27, 0.0514158
 480, 36.0001, 0.999301, 3.40628e-06, 4.40003e-26, 0.0549465
 630, 41.0001, 0.998602, 6.16185e-06, 1.9634e-25, 0.0610839
 780, 46.0001, 0.997364, 1.06929e-05, 8.36003e-25, 0.0711637
 930, 51.0001, 0.995278, 1.75185e-05, 3.40406e-24, 0.0863168
 1080, 56.0001, 0.992004, 2.63566e-05, 1.32819e-23, 0.105858
 1230, 61.0001, 0.987387, 3.47561e-05, 4.97539e-23, 0.124218
 1380, 66.0001, 0.981873, 3.72041e-05, 1.7926e-22, 0.128986
 1530, 71.0001, 0.976798, 2.85552e-05, 6.22254e-22, 0.108706
 1680, 76.0001, 0.973677, 1.29016e-05, 2.08436e-21, 0.0728489
 1830, 81.0001, 0.972641, 2.51929e-06, 6.74763e-21, 0.0492118
 1980, 86.0001, 0.972505, 1.31928e-07, 2.11409e-20, 0.0437909
 2130, 91.0001, 0.9725, 8.95175e-10, 6.41914e-20, 0.0434938
 2280, 96.0001, 0.9725, 2.63279e-13, 1.89131e-19, 0.0434918
 2430, 101, 0.9725, 6.58178e-19, 5.41385e-19, 0.0434918
 2580, 106, 0.9725, 3.76841e-23, 1.50731e-18, 0.0434918
 2730, 111, 0.9725, 1.02156e-22, 4.08624e-18, 0.0434918
 2880, 116, 0.9725, 2.69932e-22, 1.07973e-17, 0.0434918
 3030, 121, 0.9725, 6.95888e-22, 2.78355e-17, 0.0434918
 3180, 126, 0.9725, 1.75194e-21, 7.00777e-17, 0.0434918
 3330, 131, 0.9725, 4.31101e-21, 1.7244e-16, 0.0434918
 3480, 136, 0.9725, 1.03772e-20, 4.15088e-16, 0.0434918
 3630, 141, 0.9725, 2.44551e-20, 9.78204e-16, 0.0434918
 3780, 146, 0.9725, 5.64647e-20, 2.25859e-15, 0.0434918
 3930, 151, 0.9725, 1.27825e-19, 5.113e-15, 0.0434918
 4080, 156, 0.9725, 2.83914e-19, 1.13566e-14, 0.0434918
 4230, 161, 0.9725, 6.19121e-19, 2.47648e-14, 0.0434918
 4380, 166, 0.9725, 1.32634e-18, 5.30535e-14, 0.0434918
 4530, 171, 0.9725, 2.79307e-18, 1.11723e-13, 0.0434918
 4680, 176, 0.9725, 5.78509e-18, 2.31403e-13, 0.0434918
 4830, 181, 0.9725, 1.17916e-17, 4.71666e-13, 0.0434918
 4980, 186, 0.9725, 2.36648e-17, 9.46593e-13, 0.0434918
 5130, 191, 0.9725, 4.67858e-17, 1.87143e-12, 0.0434918
 5280, 196, 0.9725, 9.11624e-17, 3.6465e-12, 0.0434918
 5430, 201, 0.9725, 1.75149e-16, 7.00596e-12, 0.0434918
 5580, 206, 0.9725, 3.31956e-16, 1.32782e-11, 0.0434918
 5730, 211, 0.9725, 6.20895e-16, 2.48358e-11, 0.0434918
 5880, 216, 0.9725, 1.14656e-15, 4.58624e-11, 0.0434918
 6030, 221, 0.9725, 2.09114e-15, 8.36458e-11, 0.0434918
 6180, 226, 0.9725, 3.76828e-15, 1.50731e-10, 0.0434918
 6330, 231, 0.9725, 6.71164e-15, 2.68466e-10, 0.0434918
 6480, 236, 0.9725, 1.18193e-14, 4.72771e-10, 0.0434918
 6630, 241, 0.9725, 2.05861e-14, 8.23443e-10, 0.0434918
 6780, 246, 0.9725, 3.54743e-14, 1.41897e-09, 0.0434918
 6930, 251, 0.9725, 6.04986e-14, 2.41994e-09, 0.0434918
 7080, 256, 0.9725, 1.0214e-13, 4.0856e-09, 0.0434918
 7230, 261, 0.9725, 1.70761e-13, 6.83043e-09, 0.0434918
 7380, 266, 0.9725, 2.82774e-13, 1.1311e-08, 0.0434918
 7530, 271, 0.9725, 4.63945e-13, 1.85578e-08, 0.0434918
 7680, 276, 0.9725, 7.54359e-13, 3.01744e-08, 0.0434918
 7830, 281, 0.9725, 1.21585e-12, 4.8634e-08, 0.0434918
 7980, 286, 0.9725, 1.943e-12, 7.77201e-08, 0.0434918
 8130, 291, 0.9725, 3.07935e-12, 1.23174e-07, 0.0434918
 8280, 296, 0.9725, 4.84095e-12, 1.93638e-07, 0.0434918
 8430, 301, 0.9725, 7.55057e-12, 3.02023e-07, 0.0434918
 8580, 306, 0.9725, 1.16868e-11, 4.67472e-07, 0.0434918
 8730, 311, 0.9725, 1.79541e-11, 7.18165e-07, 0.0434918
 8880, 316, 0.9725, 2.73822e-11, 1.09529e-06, 0.0434918
 9030, 321, 0.9725, 4.14654e-11, 1.65862e-06, 0.0434918
 9180, 326, 0.9725, 6.23586e-11, 2.49434e-06, 0.0434919
 9330, 331, 0.9725, 9.3148e-11, 3.72592e-06, 0.0434919
 9480, 336, 0.9725, 1.38226e-10, 5.52904e-06, 0.0434918
 9630, 341, 0.9725, 2.03805e-10, 8.1522e-06, 0.0434919
 9780, 346, 0.9725, 2.98618e-10, 1.19447e-05, 0.0434919
 9930, 351, 0.9725, 4.3487e-10, 1.73948e-05, 0.0434919
 10080, 356, 0.9725, 6.29518e-10, 2.51807e-05, 0.0434919
 10230, 361, 0.9725, 9.05991e-10, 3.62396e-05, 0.043492
 10380, 366, 0.972499, 1.29648e-09, 5.18592e-05, 0.0434921
 10530, 371, 0.972499, 1.84498e-09, 7.3799e-05, 0.0434923
 10680, 376, 0.972499, 2.61129e-09, 0.000104452, 0.0434925
 10830, 381, 0.972498, 3.67633e-09, 0.000147053, 0.0434927
 10980, 386, 0.972498, 5.14895e-09, 0.000205958, 0.0434931
 11130, 391, 0.972497, 7.17497e-09, 0.000286999, 0.0434936
 11280, 396, 0.972496, 9.94874e-09, 0.00039795, 0.0434942
 11430, 401, 0.972494, 1.37281e-08, 0.000549124, 0.0434952
 11580, 406, 0.972491, 1.88535e-08, 0.000754142, 0.0434964
 11730, 411, 0.972488, 2.57728e-08, 0.00103091, 0.043498
 11880, 416, 0.972484, 3.50718e-08, 0.00140287, 0.0435004
 12030, 421, 0.972477, 4.75146e-08, 0.00190059, 0.0435034
 12180, 426, 0.972469, 6.40928e-08, 0.00256371, 0.0435074
 12330, 431, 0.972458, 8.60881e-08, 0.00344352, 0.0435126
 12480, 436, 0.972443, 1.15151e-07, 0.00460605, 0.0435196
 12630, 441, 0.972423, 1.53399e-07, 0.00613595, 0.0435288
 12780, 446, 0.972396, 2.03535e-07, 0.0081414, 0.0435408
 12930, 451, 0.972361, 2.69002e-07, 0.0107601, 0.0435565
 13080, 456, 0.972315, 3.54165e-07, 0.0141666, 0.0435769
 13230, 461, 0.972254, 4.64536e-07, 0.0185814, 0.0436033
 13380, 466, 0.972174, 6.07056e-07, 0.0242823, 0.0436373
 13530, 471, 0.972069, 7.90429e-07, 0.0316172, 0.0436809
 13680, 476, 0.971934, 1.02553e-06, 0.0410213, 0.0437369
 13830, 481, 0.971758, 1.32591e-06, 0.0530363, 0.0438081
 13980, 486, 0.971532, 1.70836e-06, 0.0683343, 0.0438988
 14130, 491, 0.971241, 2.19365e-06, 0.087746, 0.0440137
 14280, 496, 0.970868, 2.80736e-06, 0.112294, 0.0441587
 14430, 501, 0.970391, 3.58084e-06, 0.143234, 0.0443412
 14580, 506, 0.969783, 4.55241e-06, 0.182096, 0.0445701
 14730, 511, 0.969013, 5.76866e-06, 0.230746, 0.0448562
 14880, 516, 0.968038, 7.28599e-06, 0.29144, 0.0452123
 15030, 521, 0.966808, 9.17232e-06, 0.366893, 0.0456543
 15180, 526, 0.965264, 1.1509e-05, 0.460359, 0.0462008
 15330, 531, 0.963328, 1.43927e-05, 0.57571, 0.046874
 15480, 536, 0.960913, 1.79378e-05, 0.717514, 0.0476998
 15630, 541, 0.957907, 2.2278e-05, 0.891122, 0.0487086
 15780, 546, 0.954182, 2.75683e-05, 1.10273, 0.0499352
 15930, 551, 0.94958, 3.39858e-05, 1.35943, 0.0514196
 16080, 556, 0.94392, 4.173e-05, 1.6692, 0.0532057
 16230, 561, 0.936984, 5.10209e-05, 2.04084, 0.0553419
 16380, 566, 0.928524, 6.20945e-05, 2.48378, 0.057879
 16530, 571, 0.918254, 7.51947e-05, 3.00779, 0.0608683
 16680, 576, 0.905852, 9.05595e-05, 3.62238, 0.0643577
 16830, 581, 0.890962, 0.0001084, 4.33601, 0.0683868
 16980, 586, 0.8732, 0.000128872, 5.15488, 0.0729787
 17130, 591, 0.852166, 0.000152032, 6.08128, 0.07813
 17280, 596, 0.82746, 0.000177788, 7.11151, 0.0837978
 17430, 601, 0.798714, 0.000205831, 8.23325, 0.0898834
 17580, 606, 0.765626, 0.000235565, 9.4226, 0.0962149
 17730, 611, 0.728007, 0.000266028, 10.6411, 0.102529
 17880, 616, 0.685849, 0.000295831, 11.8332, 0.108459
 18030, 621, 0.639382, 0.000323132, 12.9253, 0.113527
 18180, 626, 0.589147, 0.000345672, 13.8269, 0.117161
 18330, 631, 0.536045, 0.000360914, 14.4365, 0.118732
 18480, 636, 0.481366, 0.000366307, 14.6523, 0.117625
 18630, 641, 0.426755, 0.000359702, 14.3881, 0.113347
 18780, 646, 0.374119, 0.000339865, 13.5946, 0.105659
 18930, 651, 0.32545, 0.000307011, 12.2804, 0.0947107
 19080, 656, 0.282569, 0.000263179, 10.5272, 0.0811244
 19230, 661, 0.246854, 0.000212248, 8.48992, 0.0659904
 19380, 666, 0.218989, 0.000159436, 6.37743, 0.0507206
 19530, 671, 0.198839, 0.000110268, 4.41074, 0.0367718
 19680, 676, 0.185496, 6.92853e-05, 2.77141, 0.0253041
 19830, 681, 0.177518, 3.89468e-05, 1.55787, 0.0169026
 19980, 686, 0.173278, 1.92423e-05, 0.769692, 0.0114894
 20130, 691, 0.171311, 8.18782e-06, 0.327513, 0.00847169
 20280, 696, 0.170532, 2.93145e-06, 0.117258, 0.00704397
 20430, 701, 0.170274, 8.59827e-07, 0.0343931, 0.00648361
 20580, 706, 0.170205, 2.00404e-07, 0.00801615, 0.00630578
 20730, 711, 0.17019, 3.58464e-08, 0.00143386, 0.00626159
 20880, 716, 0.170188, 4.7293e-09, 0.000189172, 0.00625318
 21030, 721, 0.170188, 4.3989e-10, 1.75956e-05, 0.0062521
 21180, 726, 0.170187, 2.74029e-11, 1.09611e-06, 0.00625195
 21330, 731, 0.170187, 1.07858e-12, 4.31433e-08, 0.00625197
 21480, 736, 0.170187, 2.51098e-14, 1.00439e-09, 0.00625183
 21630, 741, 0.170187, 3.20857e-16, 1.28343e-11, 0.00625189
 21780, 746, 0.170187, 2.06811e-18, 8.27243e-14, 0.00625194
 21930, 751, 0.170187, 6.11247e-21, 2.44499e-16, 0.00625195
 22080, 756, 0.170187, 7.43964e-24, 2.97586e-19, 0.00625186
 22230, 761, 0.170187, 3.30372e-27, 1.32149e-22, 0.00625189
 22380, 766, 0.170187, 4.67137e-31, 1.86855e-26, 0.00625194
 22530, 771, 0.170187, 1.80491e-35, 7.21962e-31, 0.00625181
 22680, 776, 0.170187, 0.0000000E+000, 6.42065e-36, 0.00625192
 22830, 781, 0.170187, 0.0000000E+000, 0.0000000E+000, 0.0062519
 22980, 786, 0.170187, 0.0000000E+000, 0.0000000E+000, 0.00625192
 23130, 791, 0.170187, 0.0000000E+000, 0.0000000E+000, 0.00625194
 23280, 796, 0.170187, 0.0000000E+000, 0.0000000E+000, 0.00625191
 23400, 800, 0.170187, 0.0000000E+000, 0.0000000E+000, 0.00625191