File: examples/Birch_TGA_Example/Work/Cone_2abpo9o1/birch_tga_1step_5_tga.csv
s,C,g/g,1/s,W/g,W/g
Time,Temp,Mass,MLR,MCC,DSC
 12, 21.0003, 0.999993, 6.11641e-07, 3.73132e-28, 0.121505
 36, 23.0003, 0.999976, 8.05766e-07, 7.26994e-28, 0.121938
 60, 25.0003, 0.999954, 1.05742e-06, 1.40382e-27, 0.1225
 84, 27.0003, 0.999925, 1.38236e-06, 2.68712e-27, 0.123225
 108, 29.0003, 0.999887, 1.80028e-06, 5.0995e-27, 0.124158
 132, 31.0003, 0.999838, 2.33562e-06, 9.59641e-27, 0.125352
 156, 33.0003, 0.999774, 3.01853e-06, 1.79103e-26, 0.126875
 180, 35.0003, 0.999691, 3.88597e-06, 3.31573e-26, 0.128809
 204, 37.0003, 0.999585, 4.98285e-06, 6.08984e-26, 0.131254
 228, 39.0003, 0.99945, 6.36325e-06, 1.10981e-25, 0.13433
 252, 41.0003, 0.999277, 8.09149e-06, 2.00712e-25, 0.13818
 276, 43.0003, 0.999058, 1.0243e-05, 3.60281e-25, 0.142972
 300, 45.0003, 0.998781, 1.29047e-05, 6.41972e-25, 0.148898
 324, 47.0003, 0.998434, 1.61741e-05, 1.13568e-24, 0.156175
 348, 49.0003, 0.997999, 2.01572e-05, 1.99489e-24, 0.165036
 372, 51.0003, 0.997459, 2.49637e-05, 3.47987e-24, 0.175724
 396, 53.0003, 0.996793, 3.06987e-05, 6.02898e-24, 0.188468
 420, 55.0003, 0.995978, 3.74491e-05, 1.03756e-23, 0.203458
 444, 57.0003, 0.994987, 4.52644e-05, 1.7739e-23, 0.220796
 468, 59.0003, 0.993797, 5.41286e-05, 3.01327e-23, 0.240437
 492, 61.0003, 0.992381, 6.39249e-05, 5.08619e-23, 0.262109
 516, 63.0003, 0.990723, 7.43934e-05, 8.53182e-23, 0.285217
 540, 65.0002, 0.988809, 8.50867e-05, 1.42244e-22, 0.308745
 564, 67.0002, 0.986642, 9.53341e-05, 2.3573e-22, 0.331174
 588, 69.0002, 0.984243, 0.000104232, 3.88357e-22, 0.350468
 612, 71.0002, 0.981658, 0.000110681, 6.36104e-22, 0.364157
 636, 73.0002, 0.97896, 0.000113505, 1.03598e-21, 0.369604
 660, 75.0002, 0.976247, 0.000111658, 1.67779e-21, 0.364475
 684, 77.0002, 0.973643, 0.000104517, 2.7023e-21, 0.347403
 708, 79.0002, 0.971272, 9.21961e-05, 4.32893e-21, 0.318694
 732, 81.0003, 0.96925, 7.57684e-05, 6.89788e-21, 0.280815
 756, 83.0003, 0.967653, 5.72266e-05, 1.0934e-20, 0.2383
 780, 85.0003, 0.9665, 3.90874e-05, 1.72428e-20, 0.196853
 804, 87.0003, 0.965755, 2.36877e-05, 2.70544e-20, 0.161749
 828, 89.0003, 0.96533, 1.24535e-05, 4.22384e-20, 0.136181
 852, 91.0004, 0.965122, 5.53148e-06, 6.56223e-20, 0.120447
 876, 93.0004, 0.965037, 2.01216e-06, 1.01462e-19, 0.112455
 900, 95.0004, 0.965009, 5.77975e-07, 1.56135e-19, 0.109201
 924, 97.0004, 0.965002, 1.25613e-07, 2.39153e-19, 0.108175
 948, 99.0004, 0.965, 1.965e-08, 3.64635e-19, 0.107935
 972, 101, 0.965, 2.08746e-09, 5.53456e-19, 0.107895
 996, 103, 0.965, 1.40723e-10, 8.36337e-19, 0.107891
 1020, 105, 0.965, 5.56399e-12, 1.25829e-18, 0.10789
 1044, 107, 0.965, 1.17755e-13, 1.88502e-18, 0.10789
 1068, 109, 0.965, 1.19987e-15, 2.81199e-18, 0.10789
 1092, 111, 0.965, 5.20766e-18, 4.17736e-18, 0.10789
 1116, 113, 0.965, 8.51067e-21, 6.18031e-18, 0.10789
 1140, 115, 0.965, 2.3188e-22, 9.10679e-18, 0.10789
 1164, 117, 0.965, 3.34145e-22, 1.33658e-17, 0.10789
 1188, 119, 0.965, 4.88499e-22, 1.95399e-17, 0.10789
 1212, 121, 0.965, 7.11408e-22, 2.84563e-17, 0.10789
 1236, 123, 0.965, 1.03211e-21, 4.12844e-17, 0.10789
 1260, 125, 0.965, 1.4918e-21, 5.96718e-17, 0.10789
 1284, 127, 0.965, 2.14829e-21, 8.59318e-17, 0.10789
 1308, 129, 0.965, 3.0825e-21, 1.233e-16, 0.10789
 1332, 131, 0.965, 4.40717e-21, 1.76287e-16, 0.10789
 1356, 133, 0.965, 6.27895e-21, 2.51158e-16, 0.10789
 1380, 135, 0.965, 8.91474e-21, 3.56589e-16, 0.10789
 1404, 137, 0.965, 1.26138e-20, 5.04551e-16, 0.10789
 1428, 139, 0.965, 1.77877e-20, 7.11507e-16, 0.10789
 1452, 141, 0.965, 2.50006e-20, 1.00003e-15, 0.10789
 1476, 143, 0.965, 3.50237e-20, 1.40095e-15, 0.10789
 1500, 145, 0.965, 4.89072e-20, 1.95629e-15, 0.10789
 1524, 147, 0.965, 6.80773e-20, 2.72309e-15, 0.10789
 1548, 149, 0.965, 9.44651e-20, 3.7786e-15, 0.10789
 1572, 151, 0.965, 1.30677e-19, 5.22708e-15, 0.10789
 1596, 153, 0.965, 1.8022e-19, 7.20881e-15, 0.10789
 1620, 155, 0.965, 2.47801e-19, 9.91205e-15, 0.10789
 1644, 157, 0.965, 3.39717e-19, 1.35887e-14, 0.10789
 1668, 159, 0.965, 4.6437e-19, 1.85748e-14, 0.10789
 1692, 161, 0.965, 6.32935e-19, 2.53174e-14, 0.10789
 1716, 163, 0.965, 8.60242e-19, 3.44097e-14, 0.10789
 1740, 165, 0.965, 1.16591e-18, 4.66365e-14, 0.10789
 1764, 167, 0.965, 1.57584e-18, 6.30335e-14, 0.10789
 1788, 169, 0.965, 2.12409e-18, 8.49636e-14, 0.10789
 1812, 171, 0.965, 2.8554e-18, 1.14216e-13, 0.10789
 1836, 173, 0.965, 3.82832e-18, 1.53133e-13, 0.10789
 1860, 175, 0.965, 5.11933e-18, 2.04773e-13, 0.10789
 1884, 177, 0.965, 6.82806e-18, 2.73122e-13, 0.10789
 1908, 179, 0.965, 9.08394e-18, 3.63358e-13, 0.10789
 1932, 181, 0.965, 1.20548e-17, 4.82191e-13, 0.10789
 1956, 183, 0.965, 1.59576e-17, 6.38303e-13, 0.10789
 1980, 185, 0.965, 2.10723e-17, 8.42891e-13, 0.10789
 2004, 187, 0.965, 2.77591e-17, 1.11036e-12, 0.10789
 2028, 189, 0.965, 3.64808e-17, 1.45923e-12, 0.10789
 2052, 191, 0.965, 4.783e-17, 1.9132e-12, 0.10789
 2076, 193, 0.965, 6.25643e-17, 2.50257e-12, 0.10789
 2100, 195, 0.965, 8.16501e-17, 3.266e-12, 0.10789
 2124, 197, 0.965, 1.06317e-16, 4.25268e-12, 0.10789
 2148, 199, 0.965, 1.38127e-16, 5.52507e-12, 0.10789
 2172, 201, 0.965, 1.79058e-16, 7.16232e-12, 0.10789
 2196, 203, 0.965, 2.31613e-16, 9.26452e-12, 0.10789
 2220, 205, 0.965, 2.98949e-16, 1.1958e-11, 0.10789
 2244, 207, 0.965, 3.85042e-16, 1.54017e-11, 0.10789
 2268, 209, 0.965, 4.94888e-16, 1.97955e-11, 0.10789
 2292, 211, 0.965, 6.34754e-16, 2.53902e-11, 0.10789
 2316, 213, 0.965, 8.12483e-16, 3.24993e-11, 0.10789
 2340, 215, 0.965, 1.03787e-15, 4.1515e-11, 0.10789
 2364, 217, 0.965, 1.32315e-15, 5.29258e-11, 0.10789
 2388, 219, 0.965, 1.6835e-15, 6.734e-11, 0.10789
 2412, 221, 0.965, 2.13782e-15, 8.55129e-11, 0.10789
 2436, 223, 0.965, 2.70953e-15, 1.08381e-10, 0.10789
 2460, 225, 0.965, 3.4276e-15, 1.37104e-10, 0.10789
 2484, 227, 0.965, 4.32782e-15, 1.73113e-10, 0.10789
 2508, 229, 0.965, 5.45434e-15, 2.18173e-10, 0.10789
 2532, 231, 0.965, 6.86147e-15, 2.74459e-10, 0.10789
 2556, 233, 0.965, 8.61599e-15, 3.4464e-10, 0.10789
 2568, 234, 0.965, 9.64843e-15, 3.85937e-10, 0.10789