File: examples/Birch_TGA_Example/Work/Cone_2abpo9o1/birch_tga_1step_20_tga.csv
s,C,g/g,1/s,W/g,W/g
Time,Temp,Mass,MLR,MCC,DSC
 3, 21.0014, 0.999999, 2.18432e-07, 3.74913e-28, 0.459601
 18, 26.0014, 0.999995, 4.32468e-07, 1.95365e-27, 0.460078
 33, 31.0014, 0.999985, 8.36909e-07, 9.64252e-27, 0.460981
 48, 36.0014, 0.999968, 1.58425e-06, 4.51968e-26, 0.462648
 63, 41.0014, 0.999935, 2.9349e-06, 2.01682e-25, 0.465658
 78, 46.0014, 0.999875, 5.32078e-06, 8.58766e-25, 0.470974
 93, 51.0014, 0.999767, 9.43249e-06, 3.4968e-24, 0.480128
 108, 56.0014, 0.999578, 1.63183e-05, 1.36439e-23, 0.495447
 123, 61.0014, 0.999256, 2.74414e-05, 5.11108e-23, 0.520169
 138, 66.0014, 0.998725, 4.45431e-05, 1.84151e-22, 0.558128
 153, 71.0013, 0.997882, 6.89739e-05, 6.39231e-22, 0.612238
 168, 76.0013, 0.996621, 9.99575e-05, 2.14122e-21, 0.680587
 183, 81.0013, 0.994879, 0.000131523, 6.93172e-21, 0.749574
 198, 86.0012, 0.992741, 0.000149884, 2.17179e-20, 0.788117
 213, 91.0013, 0.990538, 0.00013763, 6.59442e-20, 0.757287
 228, 96.0013, 0.988788, 9.13137e-05, 1.943e-19, 0.65002
 243, 101.001, 0.98784, 3.72118e-05, 5.56195e-19, 0.526279
 258, 106.001, 0.987544, 7.33278e-06, 1.54857e-18, 0.458275
 273, 111.001, 0.987502, 4.9318e-07, 4.19814e-18, 0.442749
 288, 116.001, 0.9875, 6.85133e-09, 1.10931e-17, 0.441646
 303, 121.001, 0.9875, 9.59621e-12, 2.85983e-17, 0.441631
 318, 126.001, 0.9875, 4.90977e-16, 7.19986e-17, 0.441631
 333, 131.001, 0.9875, 4.64971e-21, 1.77168e-16, 0.441631
 348, 136.001, 0.9875, 1.06618e-20, 4.26472e-16, 0.441631
 363, 141.001, 0.9875, 2.5126e-20, 1.00504e-15, 0.441631
 378, 146.001, 0.9875, 5.8014e-20, 2.32056e-15, 0.441631
 393, 151.001, 0.9875, 1.31333e-19, 5.25334e-15, 0.441631
 408, 156.001, 0.9875, 2.91709e-19, 1.16683e-14, 0.441631
 423, 161.001, 0.9875, 6.36122e-19, 2.54449e-14, 0.441631
 438, 166.001, 0.9875, 1.36277e-18, 5.45106e-14, 0.441631
 453, 171.001, 0.9875, 2.8698e-18, 1.14792e-13, 0.441631
 468, 176.001, 0.9875, 5.94405e-18, 2.37762e-13, 0.441631
 483, 181.001, 0.9875, 1.21157e-17, 4.84629e-13, 0.441631
 498, 186.001, 0.9875, 2.43153e-17, 9.72614e-13, 0.441631
 513, 191.001, 0.9875, 4.80722e-17, 1.92289e-12, 0.441631
 528, 196.001, 0.9875, 9.36693e-17, 3.74677e-12, 0.441631
 543, 201.001, 0.9875, 1.79966e-16, 7.19865e-12, 0.441631
 558, 206.001, 0.9875, 3.41088e-16, 1.36435e-11, 0.441631
 573, 211.001, 0.9875, 6.37978e-16, 2.55191e-11, 0.441631
 588, 216.001, 0.9875, 1.17811e-15, 4.71244e-11, 0.441631
 603, 221.001, 0.9875, 2.1487e-15, 8.59479e-11, 0.441631
 618, 226.001, 0.9875, 3.872e-15, 1.5488e-10, 0.441631
 633, 231.001, 0.9875, 6.89642e-15, 2.75857e-10, 0.441631
 648, 236.001, 0.9875, 1.21447e-14, 4.85789e-10, 0.441631
 663, 241.001, 0.9875, 2.1153e-14, 8.46119e-10, 0.441631
 678, 246.001, 0.9875, 3.64513e-14, 1.45805e-09, 0.441631
 693, 251.001, 0.9875, 6.21651e-14, 2.4866e-09, 0.441631
 708, 256.001, 0.9875, 1.04954e-13, 4.19815e-09, 0.441631
 723, 261.001, 0.9875, 1.75465e-13, 7.01862e-09, 0.441631
 738, 266.001, 0.9875, 2.90566e-13, 1.16227e-08, 0.441631
 753, 271.001, 0.9875, 4.76731e-13, 1.90693e-08, 0.441631
 768, 276.001, 0.9875, 7.75151e-13, 3.1006e-08, 0.441631
 783, 281.001, 0.9875, 1.24936e-12, 4.99746e-08, 0.441631
 798, 286.001, 0.9875, 1.99657e-12, 7.98627e-08, 0.441631
 813, 291.001, 0.9875, 3.16425e-12, 1.2657e-07, 0.441631
 828, 296.001, 0.9875, 4.97443e-12, 1.98977e-07, 0.441631
 843, 301.001, 0.9875, 7.75879e-12, 3.10352e-07, 0.441631
 858, 306.001, 0.9875, 1.20091e-11, 4.80365e-07, 0.441631
 873, 311.001, 0.9875, 1.84493e-11, 7.37973e-07, 0.441631
 888, 316.001, 0.9875, 2.81375e-11, 1.1255e-06, 0.441631
 903, 321.001, 0.9875, 4.26093e-11, 1.70437e-06, 0.441631
 918, 326.001, 0.9875, 6.4079e-11, 2.56316e-06, 0.441631
 933, 331.001, 0.9875, 9.57181e-11, 3.82872e-06, 0.441631
 948, 336.001, 0.9875, 1.4204e-10, 5.68161e-06, 0.441631
 963, 341.001, 0.9875, 2.09429e-10, 8.37717e-06, 0.441631
 978, 346.001, 0.9875, 3.06859e-10, 1.22744e-05, 0.441631
 993, 351.001, 0.9875, 4.46873e-10, 1.78749e-05, 0.441631
 1008, 356.001, 0.9875, 6.46895e-10, 2.58758e-05, 0.441631
 1023, 361.001, 0.9875, 9.31001e-10, 3.724e-05, 0.441631
 1038, 366.001, 0.9875, 1.33227e-09, 5.32908e-05, 0.441631
 1053, 371.001, 0.9875, 1.89591e-09, 7.58366e-05, 0.441631
 1068, 376.001, 0.9875, 2.6834e-09, 0.000107336, 0.441632
 1083, 381.001, 0.9875, 3.77785e-09, 0.000151114, 0.441632
 1098, 386.001, 0.9875, 5.29115e-09, 0.000211646, 0.441632
 1113, 391.001, 0.9875, 7.37314e-09, 0.000294926, 0.441633
 1128, 396.001, 0.9875, 1.02236e-08, 0.000408942, 0.441633
 1143, 401.001, 0.987499, 1.41074e-08, 0.000564294, 0.441634
 1158, 406.001, 0.987499, 1.93745e-08, 0.000774979, 0.441636
 1173, 411.001, 0.987499, 2.6485e-08, 0.0010594, 0.441637
 1188, 416.001, 0.987498, 3.60413e-08, 0.00144165, 0.441639
 1203, 421.001, 0.987498, 4.88285e-08, 0.00195314, 0.441643
 1218, 426.001, 0.987497, 6.58658e-08, 0.00263463, 0.441647
 1233, 431.001, 0.987496, 8.84708e-08, 0.00353883, 0.441652
 1248, 436.001, 0.987494, 1.1834e-07, 0.00473361, 0.441659
 1263, 441.001, 0.987492, 1.57651e-07, 0.00630604, 0.441668
 1278, 446.001, 0.987489, 2.09184e-07, 0.00836735, 0.441681
 1293, 451.001, 0.987486, 2.76479e-07, 0.0110592, 0.441697
 1308, 456.001, 0.987481, 3.64028e-07, 0.0145611, 0.441717
 1323, 461.001, 0.987475, 4.77506e-07, 0.0191003, 0.441744
 1338, 466.001, 0.987466, 6.24063e-07, 0.0249625, 0.441778
 1353, 471.001, 0.987456, 8.12669e-07, 0.0325068, 0.441823
 1368, 476.001, 0.987442, 1.05455e-06, 0.0421819, 0.44188
 1383, 481.001, 0.987424, 1.36369e-06, 0.0545477, 0.441952
 1398, 486.001, 0.9874, 1.75749e-06, 0.0702996, 0.442044
 1413, 491.001, 0.98737, 2.25748e-06, 0.0902992, 0.442161
 1428, 496.001, 0.987332, 2.89026e-06, 0.11561, 0.442309
 1443, 501.001, 0.987283, 3.68856e-06, 0.147543, 0.442495
 1458, 506.001, 0.98722, 4.69257e-06, 0.187703, 0.442728
 1473, 511.001, 0.987141, 5.95144e-06, 0.238058, 0.44302
 1488, 516.001, 0.98704, 7.52512e-06, 0.301005, 0.443385
 1503, 521.001, 0.986913, 9.48653e-06, 0.379461, 0.443839
 1518, 526.001, 0.986753, 1.19241e-05, 0.476963, 0.444402
 1533, 531.001, 0.986553, 1.49446e-05, 0.597783, 0.445099
 1548, 536.001, 0.986301, 1.86768e-05, 0.747073, 0.445958
 1563, 541.001, 0.985988, 2.32755e-05, 0.93102, 0.447015
 1578, 546.001, 0.985598, 2.89258e-05, 1.15703, 0.448312
 1593, 551.001, 0.985114, 3.58487e-05, 1.43395, 0.449897
 1608, 556.001, 0.984515, 4.43072e-05, 1.77229, 0.451831
 1623, 561.001, 0.983775, 5.46128e-05, 2.18451, 0.454183
 1638, 566.001, 0.982865, 6.7133e-05, 2.68532, 0.457034
 1653, 571.001, 0.981748, 8.23e-05, 3.292, 0.460482
 1668, 576.001, 0.98038, 0.000100619, 4.02477, 0.464637
 1683, 581.001, 0.97871, 0.000122679, 4.90716, 0.469631
 1698, 586.001, 0.976677, 0.00014916, 5.96638, 0.475612
 1713, 591.001, 0.974209, 0.000180843, 7.23372, 0.482752
 1728, 596.001, 0.971221, 0.000218621, 8.74483, 0.491244
 1743, 601.001, 0.967615, 0.0002635, 10.54, 0.501306
 1758, 606.001, 0.963275, 0.000316606, 12.6642, 0.513179
 1773, 611.001, 0.958069, 0.000379178, 15.1671, 0.527125
 1788, 616.001, 0.951845, 0.00045256, 18.1024, 0.543426
 1803, 621.001, 0.94443, 0.000538175, 21.527, 0.562373
 1818, 626.001, 0.93563, 0.000637488, 25.4995, 0.58426
 1833, 631.001, 0.925228, 0.000751942, 30.0777, 0.609363
 1848, 636.001, 0.912988, 0.000882874, 35.315, 0.637922
 1863, 641.001, 0.898653, 0.00103139, 41.2557, 0.670109
 1878, 646.001, 0.881953, 0.00119821, 47.9283, 0.705983
 1893, 651.001, 0.862613, 0.00138343, 55.3373, 0.745447
 1908, 656.001, 0.84036, 0.00158632, 63.4526, 0.788179
 1923, 661.001, 0.814942, 0.00180494, 72.1976, 0.833561
 1938, 666.001, 0.786147, 0.00203589, 81.4358, 0.880603
 1953, 671.001, 0.753827, 0.00227392, 90.9568, 0.927861
 1968, 676.001, 0.717929, 0.00251161, 100.465, 0.973377
 1983, 681.001, 0.678526, 0.00273925, 109.57, 1.01464
 1998, 686.001, 0.635859, 0.00294478, 117.791, 1.04862
 2013, 691.001, 0.590362, 0.00311418, 124.567, 1.07185
 2028, 696.001, 0.542689, 0.00323223, 129.289, 1.08065
 2043, 701.001, 0.493726, 0.00328382, 131.353, 1.07148
 2058, 706.001, 0.444573, 0.00325582, 130.233, 1.04143
 2073, 711.001, 0.396496, 0.00313937, 125.575, 0.988746
 2088, 716.001, 0.350848, 0.00293232, 117.293, 0.913507
 2103, 721.001, 0.30895, 0.00264128, 105.651, 0.818044
 2118, 726.001, 0.271952, 0.00228261, 91.3045, 0.70716
 2133, 731.001, 0.240688, 0.00188167, 75.2667, 0.587868
 2148, 736.001, 0.215561, 0.0014699, 58.7959, 0.468577
 2163, 741.001, 0.196485, 0.00108001, 43.2005, 0.3578
 2178, 746.002, 0.182912, 0.000740129, 29.6052, 0.26264
 2193, 751.002, 0.17394, 0.000468587, 18.7435, 0.187478
 2208, 756.002, 0.168484, 0.000271154, 10.8462, 0.133323
 2223, 761.002, 0.165466, 0.000141689, 5.66757, 0.0980706
 2238, 766.002, 0.163966, 6.59547e-05, 2.63819, 0.077572
 2253, 771.002, 0.163305, 2.69346e-05, 1.07738, 0.0670629
 2268, 776.002, 0.163051, 9.48605e-06, 0.379442, 0.0623832
 2283, 781.002, 0.162967, 2.82637e-06, 0.113055, 0.0606031
 2298, 786.002, 0.162944, 6.97271e-07, 0.0278909, 0.0600359
 2313, 791.002, 0.162939, 1.39046e-07, 0.00556186, 0.0598873
 2328, 796.002, 0.162938, 2.18192e-08, 0.000872767, 0.0598563
 2340, 800.002, 0.162938, 4.09023e-09, 0.000163609, 0.0598517