File: examples/Birch_TGA_Example/Work/Cone_4cd8bha9/birch_tga_1step_10_tga.csv
s,C,g/g,1/s,W/g,W/g
Time,Temp,Mass,MLR,MCC,DSC
 6, 21.0007, 0.999998, 4.369e-07, 6.90494e-16, 0.236481
 36, 26.0007, 0.999979, 8.64679e-07, 1.9343e-15, 0.237436
 66, 31.0007, 0.999942, 1.67208e-06, 5.23816e-15, 0.239238
 96, 36.0007, 0.999872, 3.16074e-06, 1.37353e-14, 0.242557
 126, 41.0007, 0.99974, 5.83993e-06, 3.49278e-14, 0.248528
 156, 46.0007, 0.999501, 1.0536e-05, 8.62588e-14, 0.258988
 186, 51.0007, 0.999076, 1.85149e-05, 2.07168e-13, 0.276746
 216, 56.0007, 0.99834, 3.15376e-05, 4.84485e-13, 0.305701
 246, 61.0006, 0.997112, 5.1621e-05, 1.10458e-12, 0.350289
 276, 66.0006, 0.995158, 8.00034e-05, 2.45787e-12, 0.413148
 306, 71.0006, 0.992247, 0.000114589, 5.34351e-12, 0.489374
 336, 76.0005, 0.988312, 0.000145893, 1.13615e-11, 0.557452
 366, 81.0005, 0.983712, 0.000155296, 2.3648e-11, 0.575505
 396, 86.0005, 0.979394, 0.000125686, 4.82274e-11, 0.505472
 426, 91.0006, 0.976476, 6.69e-05, 9.64484e-11, 0.370411
 456, 96.0007, 0.975266, 1.88216e-05, 1.89296e-10, 0.260783
 486, 101.001, 0.975018, 2.02144e-06, 3.64887e-10, 0.222604
 516, 106.001, 0.975, 5.13397e-08, 6.91286e-10, 0.218135
 546, 111.001, 0.975, 1.53569e-10, 1.28805e-09, 0.218019
 576, 116.001, 0.975, 7.88383e-14, 2.36191e-09, 0.218018
 606, 121.001, 0.975, 1.06623e-13, 4.26493e-09, 0.218018
 636, 126.001, 0.975, 1.89701e-13, 7.58806e-09, 0.218018
 666, 131.001, 0.975, 3.32735e-13, 1.33094e-08, 0.218018
 696, 136.001, 0.975, 5.75654e-13, 2.30262e-08, 0.218018
 726, 141.001, 0.975, 9.82826e-13, 3.9313e-08, 0.218018
 756, 146.001, 0.975, 1.65672e-12, 6.62688e-08, 0.218018
 786, 151.001, 0.975, 2.75851e-12, 1.10341e-07, 0.218018
 816, 156.001, 0.975, 4.53881e-12, 1.81552e-07, 0.218018
 846, 161.001, 0.975, 7.3829e-12, 2.95316e-07, 0.218018
 876, 166.001, 0.975, 1.18768e-11, 4.75073e-07, 0.218018
 906, 171.001, 0.975, 1.89028e-11, 7.56111e-07, 0.218018
 936, 176.001, 0.975, 2.97754e-11, 1.19101e-06, 0.218018
 966, 181.001, 0.975, 4.64348e-11, 1.85739e-06, 0.218018
 996, 186.001, 0.975, 7.17178e-11, 2.86871e-06, 0.218018
 1026, 191.001, 0.975, 1.09734e-10, 4.38938e-06, 0.218018
 1056, 196.001, 0.975, 1.66388e-10, 6.65551e-06, 0.218018
 1086, 201.001, 0.975, 2.50085e-10, 1.00034e-05, 0.218019
 1116, 206.001, 0.975, 3.72701e-10, 1.4908e-05, 0.218019
 1146, 211.001, 0.975, 5.50877e-10, 2.20351e-05, 0.218019
 1176, 216.001, 0.975, 8.07754e-10, 3.23101e-05, 0.218019
 1206, 221.001, 0.975, 1.17528e-09, 4.7011e-05, 0.218019
 1236, 226.001, 0.975, 1.69722e-09, 6.78887e-05, 0.218019
 1266, 231.001, 0.975, 2.43316e-09, 9.73262e-05, 0.218019
 1296, 236.001, 0.975, 3.46362e-09, 0.000138545, 0.218019
 1326, 241.001, 0.975, 4.89674e-09, 0.00019587, 0.21802
 1356, 246.001, 0.974999, 6.87681e-09, 0.000275073, 0.21802
 1386, 251.001, 0.974999, 9.5952e-09, 0.000383808, 0.218021
 1416, 256.001, 0.974999, 1.33041e-08, 0.000532165, 0.218022
 1446, 261.001, 0.974998, 1.83342e-08, 0.000733368, 0.218023
 1476, 266.001, 0.974998, 2.51162e-08, 0.00100465, 0.218024
 1506, 271.001, 0.974997, 3.42085e-08, 0.00136834, 0.218027
 1536, 276.001, 0.974996, 4.63308e-08, 0.00185323, 0.218029
 1566, 281.001, 0.974994, 6.24064e-08, 0.00249626, 0.218033
 1596, 286.001, 0.974992, 8.36131e-08, 0.00334452, 0.218038
 1626, 291.001, 0.974989, 1.11447e-07, 0.00445786, 0.218045
 1656, 296.001, 0.974985, 1.47797e-07, 0.00591189, 0.218054
 1686, 301.001, 0.97498, 1.95043e-07, 0.00780171, 0.218065
 1716, 306.001, 0.974973, 2.5616e-07, 0.0102464, 0.218079
 1746, 311.001, 0.974964, 3.34863e-07, 0.0133945, 0.218098
 1776, 316.001, 0.974953, 4.35758e-07, 0.0174303, 0.218121
 1806, 321.001, 0.974938, 5.64542e-07, 0.0225817, 0.218152
 1836, 326.001, 0.974919, 7.2823e-07, 0.0291292, 0.21819
 1866, 331.001, 0.974894, 9.35421e-07, 0.0374168, 0.218238
 1896, 336.001, 0.974862, 1.19662e-06, 0.0478648, 0.218299
 1926, 341.001, 0.974821, 1.52461e-06, 0.0609845, 0.218376
 1956, 346.001, 0.97477, 1.9349e-06, 0.0773958, 0.218471
 1986, 351.001, 0.974704, 2.44619e-06, 0.0978474, 0.218589
 2016, 356.001, 0.974622, 3.08101e-06, 0.12324, 0.218736
 2046, 361.001, 0.974518, 3.86638e-06, 0.154655, 0.218917
 2076, 366.001, 0.974388, 4.83457e-06, 0.193383, 0.21914
 2106, 371.001, 0.974226, 6.02402e-06, 0.240961, 0.219414
 2136, 376.001, 0.974024, 7.48033e-06, 0.299213, 0.219748
 2166, 381.001, 0.973774, 9.25743e-06, 0.370297, 0.220154
 2196, 386.001, 0.973464, 1.14188e-05, 0.456754, 0.220648
 2226, 391.001, 0.973084, 1.40391e-05, 0.561566, 0.221245
 2256, 396.001, 0.972617, 1.72056e-05, 0.688223, 0.221964
 2286, 401.001, 0.972045, 2.10198e-05, 0.84079, 0.222829
 2316, 406.001, 0.971348, 2.55996e-05, 1.02398, 0.223865
 2346, 411.001, 0.9705, 3.10815e-05, 1.24326, 0.225101
 2376, 416.001, 0.969472, 3.76221e-05, 1.50489, 0.226573
 2406, 421.001, 0.96823, 4.54011e-05, 1.81604, 0.228319
 2436, 426.001, 0.966734, 5.46228e-05, 2.18491, 0.230383
 2466, 431.001, 0.964936, 6.55188e-05, 2.62075, 0.232815
 2496, 436.001, 0.962783, 7.83494e-05, 3.13398, 0.235671
 2526, 441.001, 0.960213, 9.34053e-05, 3.73621, 0.239011
 2556, 446.001, 0.957153, 0.000111008, 4.44033, 0.242905
 2586, 451.001, 0.953523, 0.000131511, 5.26044, 0.247424
 2616, 456.001, 0.949229, 0.000155295, 6.21179, 0.252647
 2646, 461.001, 0.944168, 0.000182767, 7.31069, 0.258656
 2676, 466.001, 0.938222, 0.000214355, 8.57419, 0.265537
 2706, 471.001, 0.931261, 0.000250493, 10.0197, 0.273372
 2736, 476.001, 0.923142, 0.000291614, 11.6645, 0.282241
 2766, 481.001, 0.91371, 0.000338125, 13.525, 0.292216
 2796, 486.001, 0.902797, 0.000390387, 15.6155, 0.303351
 2826, 491.001, 0.890226, 0.000448677, 17.9471, 0.315678
 2856, 496.001, 0.875814, 0.000513149, 20.526, 0.329194
 2886, 501.001, 0.859374, 0.000583786, 23.3514, 0.343853
 2916, 506.001, 0.840726, 0.000660337, 26.4135, 0.359547
 2946, 511.001, 0.8197, 0.000742255, 29.6902, 0.376093
 2976, 516.001, 0.796146, 0.000828624, 33.145, 0.393217
 3006, 521.001, 0.76995, 0.000918088, 36.7235, 0.41054
 3036, 526.001, 0.741047, 0.00100878, 40.3514, 0.427558
 3066, 531.001, 0.709434, 0.0010983, 43.9321, 0.443642
 3096, 536.001, 0.675189, 0.00118366, 47.3466, 0.45803
 3126, 541.001, 0.63849, 0.00126135, 50.454, 0.469844
 3156, 546.001, 0.599624, 0.0013274, 53.096, 0.478117
 3186, 551.001, 0.559004, 0.0013776, 55.1038, 0.48184
 3216, 556.001, 0.517169, 0.00140772, 56.3087, 0.480036
 3246, 561.001, 0.47478, 0.00141392, 56.5568, 0.471852
 3276, 566.001, 0.432603, 0.00139317, 55.7267, 0.456672
 3306, 571.001, 0.391478, 0.00134372, 53.7487, 0.434235
 3336, 576.001, 0.352268, 0.00126559, 50.6235, 0.404743
 3366, 581.001, 0.31581, 0.00116089, 46.4358, 0.368942
 3396, 586.001, 0.282839, 0.001034, 41.3601, 0.328143
 3426, 591.001, 0.253929, 0.000891361, 35.6545, 0.284164
 3456, 596.001, 0.229436, 0.000740992, 29.6397, 0.239182
 3486, 601.001, 0.209461, 0.000591648, 23.6659, 0.195511
 3516, 606.001, 0.193844, 0.000451739, 18.0696, 0.155312
 3546, 611.001, 0.182193, 0.000328231, 13.1292, 0.120318
 3576, 616.001, 0.17394, 0.000225747, 9.02989, 0.0916073
 3606, 621.001, 0.16842, 0.000146108, 5.84432, 0.0695025
 3636, 626.001, 0.164954, 8.84194e-05, 3.53678, 0.0536136
 3666, 631.001, 0.162925, 4.9681e-05, 1.98724, 0.043013
 3696, 636.001, 0.161825, 2.57196e-05, 1.02878, 0.0364922
 3726, 641.001, 0.161278, 1.21652e-05, 0.48661, 0.0328208
 3756, 646.001, 0.16103, 5.20934e-06, 0.208373, 0.0309443
 3786, 651.001, 0.160928, 1.99945e-06, 0.0799778, 0.0300813
 3816, 656.001, 0.160891, 6.80421e-07, 0.0272169, 0.0297278
 3846, 661.001, 0.160879, 2.02885e-07, 0.00811539, 0.0296002
 3876, 666.001, 0.160876, 5.23287e-08, 0.00209315, 0.0295601
 3906, 671.001, 0.160875, 1.1513e-08, 0.000460519, 0.0295492
 3936, 676.001, 0.160875, 2.12823e-09, 8.51293e-05, 0.0295467
 3966, 681.001, 0.160875, 3.25172e-10, 1.30069e-05, 0.0295462
 3996, 686.001, 0.160875, 4.03425e-11, 1.6137e-06, 0.0295462
 4026, 691.001, 0.160875, 3.98686e-12, 1.59474e-07, 0.0295462
 4056, 696.001, 0.160875, 3.07407e-13, 1.22963e-08, 0.0295461
 4086, 701.001, 0.160875, 1.80839e-14, 7.23355e-10, 0.0295461
 4116, 706.001, 0.160875, 7.92286e-16, 3.16915e-11, 0.0295462
 4146, 711.001, 0.160875, 2.51879e-17, 1.00752e-12, 0.0295461
 4176, 716.001, 0.160875, 5.65021e-19, 2.26008e-14, 0.0295461
 4206, 721.001, 0.160875, 8.67799e-21, 3.4712e-16, 0.0295461
 4236, 726.001, 0.160875, 8.83489e-23, 3.53395e-18, 0.0295462
 4266, 731.001, 0.160875, 5.75858e-25, 2.30343e-20, 0.0295461
 4296, 736.001, 0.160875, 2.31507e-27, 9.2603e-23, 0.0295461
 4326, 741.001, 0.160875, 5.51548e-30, 2.20619e-25, 0.0295461
 4356, 746.001, 0.160875, 7.46042e-33, 2.98417e-28, 0.0295461
 4386, 751.001, 0.160875, 5.47251e-36, 2.189e-31, 0.0295461
 4416, 756.001, 0.160875, 0.0000000E+000, 8.29089e-35, 0.0295463
 4446, 761.001, 0.160875, 0.0000000E+000, 1.53853e-38, 0.0295461
 4476, 766.001, 0.160875, 0.0000000E+000, 0.0000000E+000, 0.0295462
 4506, 771.001, 0.160875, 0.0000000E+000, 0.0000000E+000, 0.0295462
 4536, 776.001, 0.160875, 0.0000000E+000, 0.0000000E+000, 0.0295461
 4566, 781.001, 0.160875, 0.0000000E+000, 0.0000000E+000, 0.0295462
 4596, 786.001, 0.160875, 0.0000000E+000, 0.0000000E+000, 0.0295461
 4626, 791.001, 0.160875, 0.0000000E+000, 0.0000000E+000, 0.0295461
 4656, 796.001, 0.160875, 0.0000000E+000, 0.0000000E+000, 0.0295462
 4680, 800.001, 0.160875, 0.0000000E+000, 0.0000000E+000, 0.0295462