File: examples/Birch_TGA_Example/Work/Cone_4cd8bha9/birch_tga_1step_5_tga.csv
s,C,g/g,1/s,W/g,W/g
Time,Temp,Mass,MLR,MCC,DSC
 12, 21.0003, 0.999993, 6.11641e-07, 6.95759e-16, 0.121505
 72, 26.0003, 0.99994, 1.2096e-06, 1.94904e-15, 0.12284
 132, 31.0003, 0.999838, 2.33562e-06, 5.27806e-15, 0.125352
 192, 36.0003, 0.999641, 4.40258e-06, 1.38399e-14, 0.12996
 252, 41.0003, 0.999277, 8.09149e-06, 3.51936e-14, 0.13818
 312, 46.0003, 0.998617, 1.4457e-05, 8.69151e-14, 0.152354
 372, 51.0003, 0.997459, 2.49637e-05, 2.08744e-13, 0.175724
 432, 56.0003, 0.995506, 4.12227e-05, 4.88169e-13, 0.211832
 492, 61.0003, 0.992381, 6.39249e-05, 1.11297e-12, 0.262109
 552, 66.0002, 0.987756, 9.03173e-05, 2.47654e-12, 0.320212
 612, 71.0002, 0.981658, 0.000110681, 5.38411e-12, 0.364157
 672, 76.0002, 0.974924, 0.000108763, 1.14479e-11, 0.35746
 732, 81.0003, 0.96925, 7.57684e-05, 2.38279e-11, 0.280815
 792, 86.0003, 0.966081, 3.09276e-05, 4.85943e-11, 0.178244
 852, 91.0004, 0.965122, 5.53148e-06, 9.71814e-11, 0.120447
 912, 96.0004, 0.965004, 2.79825e-07, 1.90733e-10, 0.108525
 972, 101, 0.965, 2.08747e-09, 3.67656e-10, 0.107895
 1032, 106, 0.965, 8.98115e-13, 6.96529e-10, 0.10789
 1092, 111, 0.965, 3.24506e-14, 1.29782e-09, 0.10789
 1152, 116, 0.965, 5.94953e-14, 2.37981e-09, 0.10789
 1212, 121, 0.965, 1.07431e-13, 4.29725e-09, 0.10789
 1272, 126, 0.965, 1.91139e-13, 7.64556e-09, 0.10789
 1332, 131, 0.965, 3.35256e-13, 1.34102e-08, 0.10789
 1392, 136, 0.965, 5.80015e-13, 2.32006e-08, 0.10789
 1452, 141, 0.965, 9.9027e-13, 3.96108e-08, 0.10789
 1512, 146, 0.965, 1.66927e-12, 6.67707e-08, 0.10789
 1572, 151, 0.965, 2.7794e-12, 1.11176e-07, 0.10789
 1632, 156, 0.965, 4.57317e-12, 1.82927e-07, 0.10789
 1692, 161, 0.965, 7.43878e-12, 2.97551e-07, 0.10789
 1752, 166, 0.965, 1.19667e-11, 4.78669e-07, 0.10789
 1812, 171, 0.965, 1.90458e-11, 7.61833e-07, 0.10789
 1872, 176, 0.965, 3.00007e-11, 1.20003e-06, 0.10789
 1932, 181, 0.965, 4.67861e-11, 1.87144e-06, 0.10789
 1992, 186, 0.965, 7.22603e-11, 2.89041e-06, 0.10789
 2052, 191, 0.965, 1.10564e-10, 4.42258e-06, 0.10789
 2112, 196, 0.965, 1.67646e-10, 6.70585e-06, 0.10789
 2172, 201, 0.965, 2.51976e-10, 1.0079e-05, 0.10789
 2232, 206, 0.965, 3.75519e-10, 1.50208e-05, 0.10789
 2292, 211, 0.965, 5.55041e-10, 2.22017e-05, 0.107891
 2352, 216, 0.965, 8.1386e-10, 3.25544e-05, 0.107891
 2412, 221, 0.965, 1.18416e-09, 4.73664e-05, 0.107891
 2472, 226, 0.965, 1.71005e-09, 6.84018e-05, 0.107891
 2532, 231, 0.965, 2.45154e-09, 9.80618e-05, 0.107891
 2592, 236, 0.964999, 3.48979e-09, 0.000139592, 0.107891
 2652, 241, 0.964999, 4.93374e-09, 0.000197349, 0.107892
 2712, 246, 0.964999, 6.92877e-09, 0.000277151, 0.107892
 2772, 251, 0.964998, 9.66768e-09, 0.000386707, 0.107893
 2832, 256, 0.964998, 1.34046e-08, 0.000536185, 0.107894
 2892, 261, 0.964997, 1.84727e-08, 0.000738906, 0.107895
 2952, 266, 0.964995, 2.53059e-08, 0.00101223, 0.107896
 3012, 271, 0.964994, 3.44667e-08, 0.00137867, 0.107898
 3072, 276, 0.964991, 4.66805e-08, 0.00186722, 0.107901
 3132, 281, 0.964988, 6.28772e-08, 0.00251509, 0.107905
 3192, 286, 0.964984, 8.42436e-08, 0.00336974, 0.10791
 3252, 291, 0.964978, 1.12287e-07, 0.00449146, 0.107917
 3312, 296, 0.96497, 1.4891e-07, 0.00595642, 0.107925
 3372, 301, 0.96496, 1.9651e-07, 0.00786041, 0.107936
 3432, 306, 0.964946, 2.58086e-07, 0.0103234, 0.10795
 3492, 311, 0.964928, 3.37376e-07, 0.013495, 0.107969
 3552, 316, 0.964905, 4.39022e-07, 0.0175609, 0.107992
 3612, 321, 0.964875, 5.6876e-07, 0.0227504, 0.108022
 3672, 326, 0.964836, 7.33653e-07, 0.0293461, 0.10806
 3732, 331, 0.964786, 9.42358e-07, 0.0376943, 0.108108
 3792, 336, 0.964722, 1.20545e-06, 0.0482179, 0.108168
 3852, 341, 0.96464, 1.53578e-06, 0.0614313, 0.108243
 3912, 346, 0.964536, 1.94895e-06, 0.0779578, 0.108337
 3972, 351, 0.964404, 2.46375e-06, 0.0985499, 0.108454
 4032, 356, 0.964238, 3.10281e-06, 0.124113, 0.108599
 4092, 361, 0.964029, 3.89324e-06, 0.15573, 0.108778
 4152, 366, 0.963767, 4.86738e-06, 0.194695, 0.108998
 4212, 371, 0.96344, 6.06369e-06, 0.242548, 0.109268
 4272, 376, 0.963034, 7.52773e-06, 0.301109, 0.109597
 4332, 381, 0.962531, 9.31322e-06, 0.372529, 0.109997
 4392, 386, 0.961909, 1.14833e-05, 0.459331, 0.110483
 4452, 391, 0.961143, 1.41118e-05, 0.56447, 0.111069
 4512, 396, 0.960204, 1.72846e-05, 0.691384, 0.111776
 4572, 401, 0.959056, 2.11014e-05, 0.844057, 0.112623
 4632, 406, 0.957657, 2.5677e-05, 1.02708, 0.113637
 4692, 411, 0.955957, 3.11428e-05, 1.24571, 0.114844
 4752, 416, 0.953899, 3.76485e-05, 1.50594, 0.116278
 4812, 421, 0.951415, 4.53631e-05, 1.81452, 0.117972
 4872, 426, 0.948427, 5.4476e-05, 2.17904, 0.119967
 4932, 431, 0.944846, 6.51968e-05, 2.60787, 0.122307
 4992, 436, 0.940567, 7.77556e-05, 3.11022, 0.125039
 5052, 441, 0.935473, 9.24002e-05, 3.69601, 0.128212
 5112, 446, 0.929432, 0.000109393, 4.37574, 0.131878
 5172, 451, 0.922293, 0.000129007, 5.16028, 0.136091
 5232, 456, 0.913893, 0.000151513, 6.06052, 0.140902
 5292, 461, 0.904049, 0.000177172, 7.08686, 0.146355
 5352, 466, 0.892564, 0.000206214, 8.24857, 0.152488
 5412, 471, 0.879231, 0.000238822, 9.55289, 0.159323
 5472, 476, 0.863832, 0.000275097, 11.0039, 0.166861
 5532, 481, 0.846146, 0.000315027, 12.6011, 0.175075
 5592, 486, 0.825958, 0.000358446, 14.3379, 0.183895
 5652, 491, 0.803069, 0.000404987, 16.1995, 0.193206
 5712, 496, 0.777309, 0.000454028, 18.1611, 0.202827
 5772, 501, 0.748554, 0.000504649, 20.186, 0.212509
 5832, 506, 0.716744, 0.000555584, 22.2234, 0.221919
 5892, 511, 0.681909, 0.000605192, 24.2077, 0.23064
 5952, 516, 0.644187, 0.000651458, 26.0583, 0.23817
 6012, 521, 0.603848, 0.00069203, 27.6812, 0.243936
 6072, 526, 0.561309, 0.000724311, 28.9724, 0.24732
 6132, 531, 0.51715, 0.000745616, 29.8246, 0.2477
 6192, 536, 0.472106, 0.000753401, 30.1361, 0.244507
 6252, 541, 0.427055, 0.000745559, 29.8224, 0.237301
 6312, 546, 0.382979, 0.000720754, 28.8302, 0.225852
 6372, 551, 0.340909, 0.000678757, 27.1503, 0.210221
 6432, 556, 0.301851, 0.000620715, 24.8286, 0.190816
 6492, 561, 0.266693, 0.000549276, 21.9711, 0.16842
 6552, 566, 0.236126, 0.000468496, 18.7398, 0.144153
 6612, 571, 0.21056, 0.000383477, 15.3391, 0.119373
 6672, 576, 0.190083, 0.000299768, 11.9907, 0.0955139
 6732, 581, 0.174457, 0.000222591, 8.90362, 0.0738903
 6792, 586, 0.163159, 0.000156069, 6.24275, 0.0555015
 6852, 591, 0.155466, 0.000102648, 4.10593, 0.0408928
 6912, 596, 0.150567, 6.28713e-05, 2.51485, 0.0301107
 6972, 601, 0.147671, 3.55739e-05, 1.42296, 0.0227649
 7032, 606, 0.146095, 1.8431e-05, 0.737241, 0.0181795
 7092, 611, 0.145312, 8.65926e-06, 0.346371, 0.0155792
 7152, 616, 0.144961, 3.64992e-06, 0.145997, 0.0142521
 7212, 621, 0.14482, 1.36415e-06, 0.0545661, 0.0136487
 7272, 626, 0.144771, 4.46308e-07, 0.0178523, 0.0134069
 7332, 631, 0.144755, 1.26034e-07, 0.00504135, 0.0133231
 7392, 636, 0.144751, 3.02504e-08, 0.00121002, 0.0132979
 7452, 641, 0.14475, 6.0683e-09, 0.000242732, 0.0132917
 7512, 646, 0.14475, 9.98905e-10, 3.99562e-05, 0.0132904
 7572, 651, 0.14475, 1.32257e-10, 5.29028e-06, 0.0132901
 7632, 656, 0.14475, 1.37814e-11, 5.51255e-07, 0.0132901
 7692, 661, 0.14475, 1.10373e-12, 4.4149e-08, 0.01329
 7752, 666, 0.14475, 6.62138e-14, 2.64855e-09, 0.0132902
 7812, 671, 0.14475, 2.89351e-15, 1.1574e-10, 0.0132901
 7872, 676, 0.14475, 8.9358e-17, 3.57432e-12, 0.0132901
 7932, 681, 0.14475, 1.88723e-18, 7.54894e-14, 0.0132901
 7992, 686, 0.14475, 2.63074e-20, 1.05229e-15, 0.0132901
 8052, 691, 0.14475, 2.32922e-22, 9.31689e-18, 0.0132901
 8112, 696, 0.14475, 1.25664e-24, 5.02655e-20, 0.0132901
 8172, 701, 0.14475, 3.95028e-27, 1.58011e-22, 0.01329
 8232, 706, 0.14475, 6.89436e-30, 2.75774e-25, 0.01329
 8292, 711, 0.14475, 6.34184e-33, 2.53673e-28, 0.0132901
 8352, 716, 0.14475, 2.90715e-36, 1.16286e-31, 0.0132901
 8412, 721, 0.14475, 0.0000000E+000, 2.50119e-35, 0.01329
 8472, 726, 0.14475, 0.0000000E+000, 0.0000000E+000, 0.01329
 8532, 731, 0.14475, 0.0000000E+000, 0.0000000E+000, 0.01329
 8592, 736, 0.14475, 0.0000000E+000, 0.0000000E+000, 0.01329
 8652, 741, 0.14475, 0.0000000E+000, 0.0000000E+000, 0.0132901
 8712, 746, 0.14475, 0.0000000E+000, 0.0000000E+000, 0.01329
 8772, 751, 0.14475, 0.0000000E+000, 0.0000000E+000, 0.01329
 8832, 756, 0.14475, 0.0000000E+000, 0.0000000E+000, 0.0132901
 8892, 761, 0.14475, 0.0000000E+000, 0.0000000E+000, 0.01329
 8952, 766, 0.14475, 0.0000000E+000, 0.0000000E+000, 0.01329
 9012, 771, 0.14475, 0.0000000E+000, 0.0000000E+000, 0.01329
 9072, 776, 0.14475, 0.0000000E+000, 0.0000000E+000, 0.0132899
 9132, 781, 0.14475, 0.0000000E+000, 0.0000000E+000, 0.0132901
 9192, 786, 0.14475, 0.0000000E+000, 0.0000000E+000, 0.0132899
 9252, 791, 0.14475, 0.0000000E+000, 0.0000000E+000, 0.0132901
 9312, 796, 0.14475, 0.0000000E+000, 0.0000000E+000, 0.01329
 9360, 800, 0.14475, 0.0000000E+000, 0.0000000E+000, 0.0132901