File: examples/Birch_TGA_Example/Work/Cone_4cd8bha9/birch_tga_1step_20_tga.csv
s,C,g/g,1/s,W/g,W/g
Time,Temp,Mass,MLR,MCC,DSC
 3, 21.0014, 0.999999, 2.18432e-07, 6.99206e-16, 0.459601
 18, 26.0014, 0.999995, 4.32468e-07, 1.95872e-15, 0.460078
 33, 31.0014, 0.999985, 8.36909e-07, 5.30432e-15, 0.460981
 48, 36.0014, 0.999968, 1.58425e-06, 1.39089e-14, 0.462648
 63, 41.0014, 0.999935, 2.9349e-06, 3.53694e-14, 0.465658
 78, 46.0014, 0.999875, 5.32078e-06, 8.73499e-14, 0.470974
 93, 51.0014, 0.999767, 9.43249e-06, 2.0979e-13, 0.480128
 108, 56.0014, 0.999578, 1.63183e-05, 4.9062e-13, 0.495447
 123, 61.0014, 0.999256, 2.74414e-05, 1.11857e-12, 0.520169
 138, 66.0014, 0.998725, 4.45431e-05, 2.48902e-12, 0.558128
 153, 71.0013, 0.997882, 6.89739e-05, 5.41127e-12, 0.612238
 168, 76.0013, 0.996621, 9.99575e-05, 1.15056e-11, 0.680587
 183, 81.0013, 0.994879, 0.000131523, 2.3948e-11, 0.749574
 198, 86.0012, 0.992741, 0.000149884, 4.88389e-11, 0.788117
 213, 91.0013, 0.990538, 0.00013763, 9.7671e-11, 0.757287
 228, 96.0013, 0.988788, 9.13137e-05, 1.91696e-10, 0.65002
 243, 101.001, 0.98784, 3.72118e-05, 3.69518e-10, 0.526279
 258, 106.001, 0.987544, 7.33278e-06, 7.00064e-10, 0.458275
 273, 111.001, 0.987502, 4.9318e-07, 1.30441e-09, 0.442748
 288, 116.001, 0.9875, 6.85139e-09, 2.39191e-09, 0.441646
 303, 121.001, 0.9875, 9.70419e-12, 4.31912e-09, 0.441631
 318, 126.001, 0.9875, 1.92604e-13, 7.6845e-09, 0.441631
 333, 131.001, 0.9875, 3.36965e-13, 1.34786e-08, 0.441631
 348, 136.001, 0.9875, 5.82974e-13, 2.3319e-08, 0.441631
 363, 141.001, 0.9875, 9.95326e-13, 3.9813e-08, 0.441631
 378, 146.001, 0.9875, 1.67779e-12, 6.71118e-08, 0.441631
 393, 151.001, 0.9875, 2.79361e-12, 1.11744e-07, 0.441631
 408, 156.001, 0.9875, 4.59656e-12, 1.83863e-07, 0.441631
 423, 161.001, 0.9875, 7.47686e-12, 2.99074e-07, 0.441631
 438, 166.001, 0.9875, 1.2028e-11, 4.81121e-07, 0.441631
 453, 171.001, 0.9875, 1.91434e-11, 7.65737e-07, 0.441631
 468, 176.001, 0.9875, 3.01545e-11, 1.20618e-06, 0.441631
 483, 181.001, 0.9875, 4.70262e-11, 1.88105e-06, 0.441631
 498, 186.001, 0.9875, 7.26313e-11, 2.90525e-06, 0.441631
 513, 191.001, 0.9875, 1.11132e-10, 4.44529e-06, 0.441631
 528, 196.001, 0.9875, 1.68508e-10, 6.74031e-06, 0.441631
 543, 201.001, 0.9875, 2.53272e-10, 1.01309e-05, 0.441631
 558, 206.001, 0.9875, 3.77451e-10, 1.5098e-05, 0.441631
 573, 211.001, 0.9875, 5.57898e-10, 2.23159e-05, 0.441631
 588, 216.001, 0.9875, 8.1805e-10, 3.2722e-05, 0.441631
 603, 221.001, 0.9875, 1.19026e-09, 4.76103e-05, 0.441631
 618, 226.001, 0.9875, 1.71886e-09, 6.87543e-05, 0.441631
 633, 231.001, 0.9875, 2.46418e-09, 9.85673e-05, 0.441632
 648, 236.001, 0.9875, 3.50779e-09, 0.000140312, 0.441632
 663, 241.001, 0.9875, 4.95919e-09, 0.000198368, 0.441632
 678, 246.001, 0.9875, 6.96453e-09, 0.000278581, 0.441633
 693, 251.001, 0.9875, 9.7176e-09, 0.000388704, 0.441633
 708, 256.001, 0.987499, 1.34739e-08, 0.000538955, 0.441634
 723, 261.001, 0.987499, 1.85681e-08, 0.000742726, 0.441635
 738, 266.001, 0.987499, 2.54367e-08, 0.00101747, 0.441637
 753, 271.001, 0.987498, 3.46451e-08, 0.0013858, 0.441639
 768, 276.001, 0.987498, 4.69223e-08, 0.00187689, 0.441642
 783, 281.001, 0.987497, 6.32031e-08, 0.00252813, 0.441646
 798, 286.001, 0.987496, 8.46807e-08, 0.00338723, 0.441651
 813, 291.001, 0.987494, 1.1287e-07, 0.0045148, 0.441658
 828, 296.001, 0.987492, 1.49685e-07, 0.00598742, 0.441667
 843, 301.001, 0.98749, 1.97535e-07, 0.00790141, 0.441678
 858, 306.001, 0.987486, 2.59435e-07, 0.0103774, 0.441692
 873, 311.001, 0.987482, 3.39146e-07, 0.0135658, 0.441711
 888, 316.001, 0.987476, 4.41335e-07, 0.0176534, 0.441735
 903, 321.001, 0.987469, 5.71774e-07, 0.0228709, 0.441766
 918, 326.001, 0.987459, 7.37567e-07, 0.0295027, 0.441805
 933, 331.001, 0.987446, 9.4743e-07, 0.0378972, 0.441854
 948, 336.001, 0.98743, 1.21201e-06, 0.0484803, 0.441915
 963, 341.001, 0.98741, 1.54426e-06, 0.0617703, 0.441993
 978, 346.001, 0.987383, 1.95989e-06, 0.0783956, 0.442089
 993, 351.001, 0.98735, 2.47789e-06, 0.0991155, 0.442209
 1008, 356.001, 0.987308, 3.1211e-06, 0.124844, 0.442358
 1023, 361.001, 0.987256, 3.91694e-06, 0.156677, 0.442542
 1038, 366.001, 0.98719, 4.89819e-06, 0.195927, 0.442768
 1053, 371.001, 0.987108, 6.1039e-06, 0.244156, 0.443045
 1068, 376.001, 0.987005, 7.58047e-06, 0.303219, 0.443384
 1083, 381.001, 0.986879, 9.38281e-06, 0.375312, 0.443796
 1098, 386.001, 0.986722, 1.15757e-05, 0.463028, 0.444297
 1113, 391.001, 0.986529, 1.42353e-05, 0.569414, 0.444903
 1128, 396.001, 0.986292, 1.7451e-05, 0.698042, 0.445634
 1143, 401.001, 0.986002, 2.13272e-05, 0.853087, 0.446513
 1158, 406.001, 0.985648, 2.59852e-05, 1.03941, 0.447566
 1173, 411.001, 0.985218, 3.15662e-05, 1.26265, 0.448826
 1188, 416.001, 0.984696, 3.82331e-05, 1.52932, 0.450327
 1203, 421.001, 0.984065, 4.61739e-05, 1.84696, 0.452111
 1218, 426.001, 0.983303, 5.56042e-05, 2.22417, 0.454223
 1233, 431.001, 0.982388, 6.67705e-05, 2.67082, 0.456718
 1248, 436.001, 0.98129, 7.99533e-05, 3.19813, 0.459656
 1263, 441.001, 0.979977, 9.54706e-05, 3.81882, 0.463105
 1278, 446.001, 0.978412, 0.000113681, 4.54723, 0.46714
 1293, 451.001, 0.976551, 0.000134985, 5.3994, 0.471848
 1308, 456.001, 0.974345, 0.000159831, 6.39323, 0.477321
 1323, 461.001, 0.971736, 0.000188712, 7.5485, 0.483663
 1338, 466.001, 0.96866, 0.000222172, 8.88689, 0.490986
 1353, 471.001, 0.965044, 0.000260799, 10.432, 0.499409
 1368, 476.001, 0.960807, 0.000305224, 12.209, 0.50906
 1383, 481.001, 0.955855, 0.000356117, 14.2447, 0.520071
 1398, 486.001, 0.950087, 0.000414173, 16.5669, 0.532576
 1413, 491.001, 0.94339, 0.000480099, 19.204, 0.546709
 1428, 496.001, 0.93564, 0.000554593, 22.1837, 0.562594
 1443, 501.001, 0.926705, 0.000638316, 25.5327, 0.580343
 1458, 506.001, 0.916441, 0.000731853, 29.2741, 0.600041
 1473, 511.001, 0.904697, 0.000835668, 33.4267, 0.621742
 1488, 516.001, 0.891317, 0.000950045, 38.0018, 0.645445
 1503, 521.001, 0.876141, 0.00107502, 43.0006, 0.671087
 1518, 526.001, 0.859014, 0.00121028, 48.4113, 0.698516
 1533, 531.001, 0.839784, 0.00135512, 54.2047, 0.727473
 1548, 536.001, 0.818317, 0.00150828, 60.331, 0.75757
 1563, 541.001, 0.794501, 0.00166787, 66.7149, 0.788264
 1578, 546.001, 0.76826, 0.0018313, 73.2522, 0.818837
 1593, 551.001, 0.739558, 0.00199516, 79.8062, 0.848381
 1608, 556.001, 0.708423, 0.00215516, 86.2062, 0.875792
 1623, 561.001, 0.674947, 0.00230618, 92.2471, 0.899774
 1638, 566.001, 0.63931, 0.00244232, 97.6928, 0.918868
 1653, 571.001, 0.601783, 0.00255707, 102.283, 0.931496
 1668, 576.001, 0.562738, 0.0026436, 105.744, 0.936046
 1683, 581.001, 0.522649, 0.00269517, 107.807, 0.930976
 1698, 586.001, 0.482088, 0.00270567, 108.227, 0.914955
 1713, 591.001, 0.441709, 0.00267027, 106.811, 0.88702
 1728, 596.001, 0.402225, 0.00258609, 103.444, 0.84675
 1743, 601.001, 0.364373, 0.0024529, 98.1159, 0.794421
 1758, 606.001, 0.328871, 0.00227357, 90.9427, 0.731117
 1773, 611.001, 0.296368, 0.00205438, 82.1751, 0.658779
 1788, 616.001, 0.267394, 0.00180486, 72.1945, 0.580141
 1803, 621.001, 0.242316, 0.00153721, 61.4884, 0.498558
 1818, 626.001, 0.221302, 0.0012652, 50.6078, 0.417712
 1833, 631.001, 0.204314, 0.00100276, 40.1104, 0.341228
 1848, 636.002, 0.191111, 0.000762404, 30.4962, 0.272265
 1863, 641.002, 0.181285, 0.000553738, 22.1495, 0.213151
 1878, 646.002, 0.174313, 0.000382445, 15.2978, 0.165128
 1893, 651.002, 0.169619, 0.000249927, 9.99707, 0.128301
 1908, 656.002, 0.166635, 0.000153702, 6.14807, 0.101755
 1923, 661.002, 0.164854, 8.84304e-05, 3.53722, 0.0838617
 1938, 666.002, 0.163862, 4.72926e-05, 1.8917, 0.0726449
 1953, 671.002, 0.163349, 2.33468e-05, 0.933872, 0.0661459
 1968, 676.002, 0.163106, 1.05589e-05, 0.422358, 0.0626894
 1983, 681.002, 0.163, 4.33926e-06, 0.173571, 0.0610141
 1998, 686.002, 0.162958, 1.60607e-06, 0.0642427, 0.0602801
 2013, 691.002, 0.162944, 5.30273e-07, 0.0212109, 0.0599921
 2028, 696.002, 0.162939, 1.5457e-07, 0.00618278, 0.0598917
 2043, 701.002, 0.162938, 3.93352e-08, 0.00157341, 0.059861
 2058, 706.002, 0.162938, 8.63446e-09, 0.000345378, 0.0598528
 2073, 711.002, 0.162938, 1.61377e-09, 6.45506e-05, 0.059851
 2088, 716.002, 0.162938, 2.53234e-10, 1.01294e-05, 0.0598506
 2103, 721.002, 0.162938, 3.28658e-11, 1.31463e-06, 0.0598507
 2118, 726.002, 0.162938, 3.47122e-12, 1.38849e-07, 0.0598505
 2133, 731.002, 0.162938, 2.93218e-13, 1.17287e-08, 0.0598505
 2148, 736.002, 0.162938, 1.94436e-14, 7.77743e-10, 0.0598506
 2163, 741.002, 0.162938, 9.92104e-16, 3.96842e-11, 0.0598506
 2178, 746.002, 0.162938, 3.81271e-17, 1.52508e-12, 0.0598506
 2193, 751.002, 0.162938, 1.07857e-18, 4.31429e-14, 0.0598505
 2208, 756.002, 0.162938, 2.19155e-20, 8.76619e-16, 0.0598506
 2223, 761.002, 0.162938, 3.11567e-22, 1.24627e-17, 0.0598505
 2238, 766.002, 0.162938, 3.0136e-24, 1.20544e-19, 0.0598507
 2253, 771.002, 0.162938, 1.92471e-26, 7.69886e-22, 0.0598507
 2268, 776.002, 0.162938, 7.86209e-29, 3.14483e-24, 0.0598506
 2283, 781.002, 0.162938, 1.98532e-31, 7.94127e-27, 0.0598507
 2298, 786.002, 0.162938, 2.98885e-34, 1.19554e-29, 0.0598506
 2313, 791.002, 0.162938, 2.58111e-37, 1.03244e-32, 0.0598506
 2328, 796.002, 0.162938, 0.0000000E+000, 4.9087e-36, 0.0598504
 2340, 800.002, 0.162938, 0.0000000E+000, 0.0000000E+000, 0.0598507