File: examples/Birch_TGA_Example/Work/Cone_4cd8bha9/birch_tga_1step_2_tga.csv
s,C,g/g,1/s,W/g,W/g
Time,Temp,Mass,MLR,MCC,DSC
 30, 21.0001, 0.999987, 4.80453e-07, 6.80585e-16, 0.0484218
 180, 26.0001, 0.999883, 9.4801e-07, 1.90653e-15, 0.0494653
 330, 31.0001, 0.999682, 1.82243e-06, 5.16293e-15, 0.0514158
 480, 36.0001, 0.999301, 3.40628e-06, 1.3538e-14, 0.0549465
 630, 41.0001, 0.998602, 6.16185e-06, 3.44259e-14, 0.0610839
 780, 46.0001, 0.997364, 1.06929e-05, 8.50189e-14, 0.0711637
 930, 51.0001, 0.995278, 1.75185e-05, 2.04189e-13, 0.0863168
 1080, 56.0001, 0.992004, 2.63566e-05, 4.77518e-13, 0.105858
 1230, 61.0001, 0.987387, 3.47561e-05, 1.08869e-12, 0.124218
 1380, 66.0001, 0.981873, 3.72041e-05, 2.42252e-12, 0.128986
 1530, 71.0001, 0.976798, 2.85552e-05, 5.26668e-12, 0.108706
 1680, 76.0001, 0.973677, 1.29016e-05, 1.11982e-11, 0.0728489
 1830, 81.0001, 0.972641, 2.51929e-06, 2.33081e-11, 0.0492118
 1980, 86.0001, 0.972505, 1.31928e-07, 4.75338e-11, 0.0437909
 2130, 91.0001, 0.9725, 8.95177e-10, 9.506e-11, 0.0434938
 2280, 96.0001, 0.9725, 2.67943e-13, 1.86569e-10, 0.0434918
 2430, 101, 0.9725, 8.99138e-15, 3.59629e-10, 0.0434918
 2580, 106, 0.9725, 1.7033e-14, 6.81322e-10, 0.0434918
 2730, 111, 0.9725, 3.1737e-14, 1.26948e-09, 0.0434918
 2880, 116, 0.9725, 5.81962e-14, 2.32785e-09, 0.0434918
 3030, 121, 0.9725, 1.05085e-13, 4.20342e-09, 0.0434918
 3180, 126, 0.9725, 1.86965e-13, 7.47861e-09, 0.0434918
 3330, 131, 0.9725, 3.27935e-13, 1.31174e-08, 0.0434918
 3480, 136, 0.9725, 5.67348e-13, 2.26939e-08, 0.0434918
 3630, 141, 0.9725, 9.68644e-13, 3.87458e-08, 0.0434918
 3780, 146, 0.9725, 1.63281e-12, 6.53124e-08, 0.0434918
 3930, 151, 0.9725, 2.7187e-12, 1.08748e-07, 0.0434918
 4080, 156, 0.9725, 4.47329e-12, 1.78932e-07, 0.0434918
 4230, 161, 0.9725, 7.27631e-12, 2.91052e-07, 0.0434918
 4380, 166, 0.9725, 1.17053e-11, 4.68214e-07, 0.0434918
 4530, 171, 0.9725, 1.86298e-11, 7.45193e-07, 0.0434918
 4680, 176, 0.9725, 2.93454e-11, 1.17381e-06, 0.0434918
 4830, 181, 0.9725, 4.57641e-11, 1.83057e-06, 0.0434918
 4980, 186, 0.9725, 7.06818e-11, 2.82727e-06, 0.0434918
 5130, 191, 0.9725, 1.08149e-10, 4.32597e-06, 0.0434918
 5280, 196, 0.9725, 1.63984e-10, 6.55936e-06, 0.0434918
 5430, 201, 0.9725, 2.46472e-10, 9.85886e-06, 0.0434919
 5580, 206, 0.9725, 3.67315e-10, 1.46926e-05, 0.0434919
 5730, 211, 0.9725, 5.42916e-10, 2.17166e-05, 0.0434919
 5880, 216, 0.9725, 7.96079e-10, 3.18432e-05, 0.043492
 6030, 221, 0.9725, 1.15829e-09, 4.63315e-05, 0.0434921
 6180, 226, 0.972499, 1.67268e-09, 6.69074e-05, 0.0434922
 6330, 231, 0.972499, 2.39798e-09, 9.59192e-05, 0.0434924
 6480, 236, 0.972499, 3.41354e-09, 0.000136542, 0.0434927
 6630, 241, 0.972498, 4.82593e-09, 0.000193037, 0.043493
 6780, 246, 0.972497, 6.77736e-09, 0.000271095, 0.0434935
 6930, 251, 0.972496, 9.45642e-09, 0.000378257, 0.0434941
 7080, 256, 0.972494, 1.31117e-08, 0.000524467, 0.043495
 7230, 261, 0.972492, 1.80689e-08, 0.000722757, 0.0434962
 7380, 266, 0.972489, 2.47527e-08, 0.000990108, 0.0434978
 7530, 271, 0.972484, 3.37132e-08, 0.00134853, 0.0435
 7680, 276, 0.972479, 4.56597e-08, 0.00182639, 0.0435029
 7830, 281, 0.972471, 6.15019e-08, 0.00246008, 0.0435067
 7980, 286, 0.97246, 8.24002e-08, 0.00329601, 0.0435118
 8130, 291, 0.972445, 1.09828e-07, 0.00439313, 0.0435183
 8280, 296, 0.972426, 1.45648e-07, 0.00582593, 0.043527
 8430, 301, 0.972401, 1.92202e-07, 0.00768807, 0.0435381
 8580, 306, 0.972368, 2.52421e-07, 0.0100968, 0.0435525
 8730, 311, 0.972325, 3.2996e-07, 0.0131984, 0.0435709
 8880, 316, 0.972268, 4.29353e-07, 0.0171741, 0.0435946
 9030, 321, 0.972194, 5.56203e-07, 0.0222481, 0.0436248
 9180, 326, 0.972099, 7.17404e-07, 0.0286962, 0.043663
 9330, 331, 0.971977, 9.21403e-07, 0.0368561, 0.0437113
 9480, 336, 0.97182, 1.1785e-06, 0.0471401, 0.0437721
 9630, 341, 0.97162, 1.50123e-06, 0.0600492, 0.0438481
 9780, 346, 0.971366, 1.90473e-06, 0.0761893, 0.0439431
 9930, 351, 0.971044, 2.40728e-06, 0.0962911, 0.0440611
 10080, 356, 0.970638, 3.03077e-06, 0.121231, 0.0442072
 10230, 361, 0.970127, 3.80139e-06, 0.152056, 0.0443874
 10380, 366, 0.969488, 4.75027e-06, 0.190011, 0.0446088
 10530, 371, 0.968691, 5.91426e-06, 0.23657, 0.0448798
 10680, 376, 0.967701, 7.33674e-06, 0.29347, 0.0452101
 10830, 381, 0.966475, 9.06855e-06, 0.362742, 0.0456114
 10980, 386, 0.964962, 1.11689e-05, 0.446754, 0.0460968
 11130, 391, 0.963102, 1.37061e-05, 0.548243, 0.0466818
 11280, 396, 0.960825, 1.67588e-05, 0.67035, 0.0473837
 11430, 401, 0.958045, 2.04163e-05, 0.816651, 0.0482223
 11580, 406, 0.954664, 2.47793e-05, 0.991171, 0.0492198
 11730, 411, 0.95057, 2.99598e-05, 1.19839, 0.0504003
 11880, 416, 0.945629, 3.60806e-05, 1.44322, 0.0517904
 12030, 421, 0.939692, 4.32738e-05, 1.73095, 0.0534179
 12180, 426, 0.932587, 5.16785e-05, 2.06714, 0.0553118
 12330, 431, 0.924121, 6.14359e-05, 2.45743, 0.0575003
 12480, 436, 0.914081, 7.26832e-05, 2.90733, 0.06001
 12630, 441, 0.902235, 8.55445e-05, 3.42178, 0.062863
 12780, 446, 0.888332, 0.000100118, 4.00474, 0.0660735
 12930, 451, 0.872111, 0.000116462, 4.65846, 0.0696446
 13080, 456, 0.853305, 0.000134568, 5.38273, 0.0735624
 13230, 461, 0.831656, 0.000154346, 6.17383, 0.0777904
 13380, 466, 0.806928, 0.000175587, 7.02347, 0.0822626
 13530, 471, 0.778924, 0.000197937, 7.91749, 0.0868766
 13680, 476, 0.747517, 0.000220869, 8.83477, 0.0914865
 13830, 481, 0.71267, 0.000243655, 9.74619, 0.0958984
 13980, 486, 0.674474, 0.000265354, 10.6142, 0.0998677
 14130, 491, 0.633175, 0.000284824, 11.393, 0.103104
 14280, 496, 0.589203, 0.000300757, 12.0303, 0.10528
 14430, 501, 0.543194, 0.000311756, 12.4702, 0.106057
 14580, 506, 0.495992, 0.00031646, 12.6584, 0.105113
 14730, 511, 0.44863, 0.000313711, 12.5484, 0.10219
 14880, 516, 0.40229, 0.000302753, 12.1101, 0.0971433
 15030, 521, 0.358223, 0.000283442, 11.3377, 0.0899911
 15180, 526, 0.317646, 0.000256402, 10.2561, 0.0809554
 15330, 531, 0.281617, 0.000223105, 8.92421, 0.0704742
 15480, 536, 0.250916, 0.000185796, 7.43185, 0.0591771
 15630, 541, 0.225941, 0.000147244, 5.88978, 0.0478157
 15780, 546, 0.20666, 0.000110346, 4.41385, 0.037155
 15930, 551, 0.192626, 7.76437e-05, 3.10575, 0.0278475
 16080, 556, 0.183068, 5.08905e-05, 2.03562, 0.0203219
 16230, 561, 0.177025, 3.07967e-05, 1.23187, 0.0147221
 16380, 566, 0.173511, 1.70384e-05, 0.681534, 0.0109168
 16530, 571, 0.17165, 8.52409e-06, 0.340964, 0.00857651
 16680, 576, 0.170764, 3.80961e-06, 0.152384, 0.00728725
 16830, 581, 0.170388, 1.5006e-06, 0.0600241, 0.00665855
 16980, 586, 0.170248, 5.13237e-07, 0.0205295, 0.00639061
 17130, 591, 0.170203, 1.49922e-07, 0.00599688, 0.00629234
 17280, 596, 0.170191, 3.67274e-08, 0.0014691, 0.00626186
 17430, 601, 0.170188, 7.39539e-09, 0.000295816, 0.00625387
 17580, 606, 0.170188, 1.19718e-09, 4.78873e-05, 0.00625226
 17730, 611, 0.170187, 1.52059e-10, 6.08235e-06, 0.0062519
 17880, 616, 0.170187, 1.47535e-11, 5.90138e-07, 0.00625192
 18030, 621, 0.170187, 1.06184e-12, 4.24734e-08, 0.00625189
 18180, 626, 0.170187, 5.48943e-14, 2.19577e-09, 0.00625198
 18330, 631, 0.170187, 1.96791e-15, 7.87164e-11, 0.00625199
 18480, 636, 0.170187, 4.70722e-17, 1.88289e-12, 0.006252
 18630, 641, 0.170187, 7.20335e-19, 2.88134e-14, 0.00625193
 18780, 646, 0.170187, 6.73566e-21, 2.69426e-16, 0.00625195
 18930, 651, 0.170187, 3.6608e-23, 1.46432e-18, 0.00625196
 19080, 656, 0.170187, 1.09513e-25, 4.38053e-21, 0.00625191
 19230, 661, 0.170187, 1.69952e-28, 6.7981e-24, 0.00625199
 19380, 666, 0.170187, 1.28294e-31, 5.13177e-27, 0.00625194
 19530, 671, 0.170187, 4.39305e-35, 1.75722e-30, 0.00625187
 19680, 676, 0.170187, 0.0000000E+000, 2.53028e-34, 0.00625191
 19830, 681, 0.170187, 0.0000000E+000, 1.41141e-38, 0.00625184
 19980, 686, 0.170187, 0.0000000E+000, 0.0000000E+000, 0.00625193
 20130, 691, 0.170187, 0.0000000E+000, 0.0000000E+000, 0.00625197
 20280, 696, 0.170187, 0.0000000E+000, 0.0000000E+000, 0.00625192
 20430, 701, 0.170187, 0.0000000E+000, 0.0000000E+000, 0.00625196
 20580, 706, 0.170187, 0.0000000E+000, 0.0000000E+000, 0.006252
 20730, 711, 0.170187, 0.0000000E+000, 0.0000000E+000, 0.00625194
 20880, 716, 0.170187, 0.0000000E+000, 0.0000000E+000, 0.00625191
 21030, 721, 0.170187, 0.0000000E+000, 0.0000000E+000, 0.00625193
 21180, 726, 0.170187, 0.0000000E+000, 0.0000000E+000, 0.00625193
 21330, 731, 0.170187, 0.0000000E+000, 0.0000000E+000, 0.0062519
 21480, 736, 0.170187, 0.0000000E+000, 0.0000000E+000, 0.00625181
 21630, 741, 0.170187, 0.0000000E+000, 0.0000000E+000, 0.00625197
 21780, 746, 0.170187, 0.0000000E+000, 0.0000000E+000, 0.00625188
 21930, 751, 0.170187, 0.0000000E+000, 0.0000000E+000, 0.00625191
 22080, 756, 0.170187, 0.0000000E+000, 0.0000000E+000, 0.00625193
 22230, 761, 0.170187, 0.0000000E+000, 0.0000000E+000, 0.00625192
 22380, 766, 0.170187, 0.0000000E+000, 0.0000000E+000, 0.00625197
 22530, 771, 0.170187, 0.0000000E+000, 0.0000000E+000, 0.0062519
 22680, 776, 0.170187, 0.0000000E+000, 0.0000000E+000, 0.00625193
 22830, 781, 0.170187, 0.0000000E+000, 0.0000000E+000, 0.00625188
 22980, 786, 0.170187, 0.0000000E+000, 0.0000000E+000, 0.00625196
 23130, 791, 0.170187, 0.0000000E+000, 0.0000000E+000, 0.00625197
 23280, 796, 0.170187, 0.0000000E+000, 0.0000000E+000, 0.00625196
 23400, 800, 0.170187, 0.0000000E+000, 0.0000000E+000, 0.00625197