File: examples/Birch_TGA_Example/Work/Cone_arvlop4v/birch_tga_1step_5_tga.csv
s,C,g/g,1/s,W/g,W/g
Time,Temp,Mass,MLR,MCC,DSC
 12, 21.0003, 0.999993, 6.11641e-07, 0.0000000E+000, 0.121505
 72, 26.0003, 0.99994, 1.2096e-06, 0.0000000E+000, 0.12284
 132, 31.0003, 0.999838, 2.33562e-06, 0.0000000E+000, 0.125352
 192, 36.0003, 0.999641, 4.40258e-06, 0.0000000E+000, 0.12996
 252, 41.0003, 0.999277, 8.09149e-06, 0.0000000E+000, 0.13818
 312, 46.0003, 0.998617, 1.4457e-05, 0.0000000E+000, 0.152354
 372, 51.0003, 0.997459, 2.49637e-05, 0.0000000E+000, 0.175724
 432, 56.0003, 0.995506, 4.12227e-05, 0.0000000E+000, 0.211832
 492, 61.0003, 0.992381, 6.39249e-05, 0.0000000E+000, 0.262109
 552, 66.0002, 0.987756, 9.03173e-05, 0.0000000E+000, 0.320212
 612, 71.0002, 0.981658, 0.000110681, 0.0000000E+000, 0.364157
 672, 76.0002, 0.974924, 0.000108763, 0.0000000E+000, 0.35746
 732, 81.0003, 0.96925, 7.57684e-05, 0.0000000E+000, 0.280815
 792, 86.0003, 0.966081, 3.09276e-05, 0.0000000E+000, 0.178244
 852, 91.0004, 0.965122, 5.53148e-06, 0.0000000E+000, 0.120447
 912, 96.0004, 0.965004, 2.79825e-07, 0.0000000E+000, 0.108525
 972, 101, 0.965, 2.08746e-09, 0.0000000E+000, 0.107895
 1032, 106, 0.965, 8.80702e-13, 0.0000000E+000, 0.10789
 1092, 111, 0.965, 5.20756e-18, 0.0000000E+000, 0.10789
 1152, 116, 0.965, 5.77881e-26, 0.0000000E+000, 0.10789
 1212, 121, 0.965, 6.81979e-38, 0.0000000E+000, 0.10789
 1272, 126, 0.965, 0.0000000E+000, 5.24955e-38, 0.10789
 1332, 131, 0.965, 0.0000000E+000, 2.40327e-37, 0.10789
 1392, 136, 0.965, 0.0000000E+000, 1.06008e-36, 0.10789
 1452, 141, 0.965, 0.0000000E+000, 4.51136e-36, 0.10789
 1512, 146, 0.965, 0.0000000E+000, 1.85469e-35, 0.10789
 1572, 151, 0.965, 0.0000000E+000, 7.37499e-35, 0.10789
 1632, 156, 0.965, 0.0000000E+000, 2.83976e-34, 0.10789
 1692, 161, 0.965, 2.65006e-38, 1.06002e-33, 0.10789
 1752, 166, 0.965, 9.59981e-38, 3.83992e-33, 0.10789
 1812, 171, 0.965, 3.37819e-37, 1.35128e-32, 0.10789
 1872, 176, 0.965, 1.15595e-36, 4.62381e-32, 0.10789
 1932, 181, 0.965, 3.84975e-36, 1.5399e-31, 0.10789
 1992, 186, 0.965, 1.24895e-35, 4.9958e-31, 0.10789
 2052, 191, 0.965, 3.95044e-35, 1.58018e-30, 0.10789
 2112, 196, 0.965, 1.21923e-34, 4.87693e-30, 0.10789
 2172, 201, 0.965, 3.67456e-34, 1.46982e-29, 0.10789
 2232, 206, 0.965, 1.08224e-33, 4.32896e-29, 0.10789
 2292, 211, 0.965, 3.11712e-33, 1.24685e-28, 0.10789
 2352, 216, 0.965, 8.78599e-33, 3.5144e-28, 0.10789
 2412, 221, 0.965, 2.42505e-32, 9.7002e-28, 0.10789
 2472, 226, 0.965, 6.55868e-32, 2.62347e-27, 0.10789
 2532, 231, 0.965, 1.73917e-31, 6.95668e-27, 0.10789
 2592, 236, 0.965, 4.52428e-31, 1.80971e-26, 0.10789
 2652, 241, 0.965, 1.15526e-30, 4.62105e-26, 0.10789
 2712, 246, 0.965, 2.89714e-30, 1.15886e-25, 0.10789
 2772, 251, 0.965, 7.13907e-30, 2.85563e-25, 0.10789
 2832, 256, 0.965, 1.72946e-29, 6.91785e-25, 0.10789
 2892, 261, 0.965, 4.12084e-29, 1.64834e-24, 0.10789
 2952, 266, 0.965, 9.66202e-29, 3.86481e-24, 0.10789
 3012, 271, 0.965, 2.23022e-28, 8.92089e-24, 0.10789
 3072, 276, 0.965, 5.07006e-28, 2.02803e-23, 0.10789
 3132, 281, 0.965, 1.13564e-27, 4.54258e-23, 0.10789
 3192, 286, 0.965, 2.50731e-27, 1.00292e-22, 0.10789
 3252, 291, 0.965, 5.45853e-27, 2.18341e-22, 0.10789
 3312, 296, 0.965, 1.17222e-26, 4.68886e-22, 0.10789
 3372, 301, 0.965, 2.48404e-26, 9.93615e-22, 0.10789
 3432, 306, 0.965, 5.19609e-26, 2.07844e-21, 0.10789
 3492, 311, 0.965, 1.07327e-25, 4.29308e-21, 0.10789
 3552, 316, 0.965, 2.18975e-25, 8.75899e-21, 0.10789
 3612, 321, 0.965, 4.41435e-25, 1.76574e-20, 0.10789
 3672, 326, 0.965, 8.79544e-25, 3.51817e-20, 0.10789
 3732, 331, 0.965, 1.73258e-24, 6.93031e-20, 0.10789
 3792, 336, 0.965, 3.37516e-24, 1.35006e-19, 0.10789
 3852, 341, 0.965, 6.504e-24, 2.6016e-19, 0.10789
 3912, 346, 0.965, 1.24013e-23, 4.9605e-19, 0.10789
 3972, 351, 0.965, 2.34024e-23, 9.36095e-19, 0.10789
 4032, 356, 0.965, 4.3719e-23, 1.74876e-18, 0.10789
 4092, 361, 0.965, 8.08726e-23, 3.2349e-18, 0.10789
 4152, 366, 0.965, 1.48167e-22, 5.9267e-18, 0.10789
 4212, 371, 0.965, 2.68919e-22, 1.07568e-17, 0.10789
 4272, 376, 0.965, 4.83619e-22, 1.93448e-17, 0.10789
 4332, 381, 0.965, 8.61962e-22, 3.44785e-17, 0.10789
 4392, 386, 0.965, 1.52288e-21, 6.09152e-17, 0.10789
 4452, 391, 0.965, 2.6676e-21, 1.06704e-16, 0.10789
 4512, 396, 0.965, 4.63381e-21, 1.85352e-16, 0.10789
 4572, 401, 0.965, 7.98359e-21, 3.19344e-16, 0.10789
 4632, 406, 0.965, 1.36452e-20, 5.45807e-16, 0.10789
 4692, 411, 0.965, 2.31397e-20, 9.25589e-16, 0.10789
 4752, 416, 0.965, 3.89411e-20, 1.55764e-15, 0.10789
 4812, 421, 0.965, 6.50432e-20, 2.60173e-15, 0.10789
 4872, 426, 0.965, 1.07847e-19, 4.31389e-15, 0.10789
 4932, 431, 0.965, 1.77541e-19, 7.10162e-15, 0.10789
 4992, 436, 0.965, 2.90224e-19, 1.1609e-14, 0.10789
 5052, 441, 0.965, 4.71173e-19, 1.88469e-14, 0.10789
 5112, 446, 0.965, 7.59802e-19, 3.03921e-14, 0.10789
 5172, 451, 0.965, 1.21718e-18, 4.86873e-14, 0.10789
 5232, 456, 0.965, 1.93733e-18, 7.74932e-14, 0.10789
 5292, 461, 0.965, 3.06409e-18, 1.22564e-13, 0.10789
 5352, 466, 0.965, 4.81623e-18, 1.92649e-13, 0.10789
 5412, 471, 0.965, 7.52442e-18, 3.00977e-13, 0.10789
 5472, 476, 0.965, 1.16856e-17, 4.67425e-13, 0.10789
 5532, 481, 0.965, 1.80425e-17, 7.217e-13, 0.10789
 5592, 486, 0.965, 2.76985e-17, 1.10794e-12, 0.10789
 5652, 491, 0.965, 4.22843e-17, 1.69137e-12, 0.10789
 5712, 496, 0.965, 6.41968e-17, 2.56787e-12, 0.10789
 5772, 501, 0.965, 9.69405e-17, 3.87762e-12, 0.10789
 5832, 506, 0.965, 1.45613e-16, 5.82452e-12, 0.10789
 5892, 511, 0.965, 2.17591e-16, 8.70366e-12, 0.10789
 5952, 516, 0.965, 3.23499e-16, 1.294e-11, 0.10789
 6012, 521, 0.965, 4.78558e-16, 1.91423e-11, 0.10789
 6072, 526, 0.965, 7.04481e-16, 2.81792e-11, 0.10789
 6132, 531, 0.965, 1.03208e-15, 4.12834e-11, 0.10789
 6192, 536, 0.965, 1.50491e-15, 6.01965e-11, 0.10789
 6252, 541, 0.965, 2.18422e-15, 8.73687e-11, 0.10789
 6312, 546, 0.965, 3.15577e-15, 1.26231e-10, 0.10789
 6372, 551, 0.965, 4.53916e-15, 1.81566e-10, 0.10789
 6432, 556, 0.965, 6.50042e-15, 2.60017e-10, 0.10789
 6492, 561, 0.965, 9.26911e-15, 3.70764e-10, 0.10789
 6552, 566, 0.965, 1.31613e-14, 5.26451e-10, 0.10789
 6612, 571, 0.965, 1.86104e-14, 7.44414e-10, 0.10789
 6672, 576, 0.965, 2.62083e-14, 1.04833e-09, 0.10789
 6732, 581, 0.965, 3.67606e-14, 1.47043e-09, 0.10789
 6792, 586, 0.965, 5.1359e-14, 2.05436e-09, 0.10789
 6852, 591, 0.965, 7.14775e-14, 2.8591e-09, 0.10789
 6912, 596, 0.965, 9.90993e-14, 3.96397e-09, 0.10789
 6972, 601, 0.965, 1.36883e-13, 5.47531e-09, 0.10789
 7032, 606, 0.965, 1.88378e-13, 7.53513e-09, 0.10789
 7092, 611, 0.965, 2.58312e-13, 1.03325e-08, 0.10789
 7152, 616, 0.965, 3.52952e-13, 1.41181e-08, 0.10789
 7212, 621, 0.965, 4.80587e-13, 1.92235e-08, 0.10789
 7272, 626, 0.965, 6.52133e-13, 2.60853e-08, 0.10789
 7332, 631, 0.965, 8.81931e-13, 3.52772e-08, 0.10789
 7392, 636, 0.965, 1.18875e-12, 4.75501e-08, 0.10789
 7452, 641, 0.965, 1.59709e-12, 6.38836e-08, 0.10789
 7512, 646, 0.965, 2.13881e-12, 8.55524e-08, 0.10789
 7572, 651, 0.965, 2.85524e-12, 1.1421e-07, 0.10789
 7632, 656, 0.965, 3.79981e-12, 1.51993e-07, 0.10789
 7692, 661, 0.965, 5.04143e-12, 2.01657e-07, 0.10789
 7752, 666, 0.965, 6.66864e-12, 2.66746e-07, 0.10789
 7812, 671, 0.965, 8.79497e-12, 3.51799e-07, 0.10789
 7872, 676, 0.965, 1.15655e-11, 4.62621e-07, 0.10789
 7932, 681, 0.965, 1.51652e-11, 6.0661e-07, 0.10789
 7992, 686, 0.965, 1.98293e-11, 7.93171e-07, 0.10789
 8052, 691, 0.965, 2.58557e-11, 1.03423e-06, 0.10789
 8112, 696, 0.965, 3.36214e-11, 1.34486e-06, 0.10789
 8172, 701, 0.965, 4.36019e-11, 1.74408e-06, 0.10789
 8232, 706, 0.965, 5.63952e-11, 2.25581e-06, 0.10789
 8292, 711, 0.965, 7.27517e-11, 2.91007e-06, 0.10789
 8352, 716, 0.965, 9.36109e-11, 3.74443e-06, 0.10789
 8412, 721, 0.965, 1.20146e-10, 4.80582e-06, 0.10789
 8472, 726, 0.965, 1.53817e-10, 6.15269e-06, 0.10789
 8532, 731, 0.965, 1.96441e-10, 7.85766e-06, 0.10789
 8592, 736, 0.965, 2.5027e-10, 1.00108e-05, 0.10789
 8652, 741, 0.965, 3.18088e-10, 1.27235e-05, 0.10789
 8712, 746, 0.965, 4.03334e-10, 1.61333e-05, 0.107891
 8772, 751, 0.965, 5.1024e-10, 2.04096e-05, 0.107891
 8832, 756, 0.965, 6.44009e-10, 2.57604e-05, 0.107891
 8892, 761, 0.965, 8.11021e-10, 3.24408e-05, 0.107891
 8952, 766, 0.965, 1.01908e-09, 4.07632e-05, 0.107891
 9012, 771, 0.965, 1.27772e-09, 5.11087e-05, 0.107891
 9072, 776, 0.965, 1.59855e-09, 6.39419e-05, 0.107891
 9132, 781, 0.965, 1.99569e-09, 7.98275e-05, 0.107891
 9192, 786, 0.964999, 2.48628e-09, 9.94512e-05, 0.107891
 9252, 791, 0.964999, 3.09108e-09, 0.000123643, 0.107891
 9312, 796, 0.964999, 3.83518e-09, 0.000153407, 0.107891
 9360, 800, 0.964999, 4.55091e-09, 0.000182036, 0.107891