File: examples/Birch_TGA_Example/Work/Cone_arvlop4v/birch_tga_1step_2_tga.csv
s,C,g/g,1/s,W/g,W/g
Time,Temp,Mass,MLR,MCC,DSC
 30, 21.0001, 0.999987, 4.80453e-07, 0.0000000E+000, 0.0484218
 180, 26.0001, 0.999883, 9.4801e-07, 0.0000000E+000, 0.0494653
 330, 31.0001, 0.999682, 1.82243e-06, 0.0000000E+000, 0.0514158
 480, 36.0001, 0.999301, 3.40628e-06, 0.0000000E+000, 0.0549465
 630, 41.0001, 0.998602, 6.16185e-06, 0.0000000E+000, 0.0610839
 780, 46.0001, 0.997364, 1.06929e-05, 0.0000000E+000, 0.0711637
 930, 51.0001, 0.995278, 1.75185e-05, 0.0000000E+000, 0.0863168
 1080, 56.0001, 0.992004, 2.63566e-05, 0.0000000E+000, 0.105858
 1230, 61.0001, 0.987387, 3.47561e-05, 0.0000000E+000, 0.124218
 1380, 66.0001, 0.981873, 3.72041e-05, 0.0000000E+000, 0.128986
 1530, 71.0001, 0.976798, 2.85552e-05, 0.0000000E+000, 0.108706
 1680, 76.0001, 0.973677, 1.29016e-05, 0.0000000E+000, 0.0728489
 1830, 81.0001, 0.972641, 2.51929e-06, 0.0000000E+000, 0.0492118
 1980, 86.0001, 0.972505, 1.31928e-07, 0.0000000E+000, 0.0437909
 2130, 91.0001, 0.9725, 8.95175e-10, 0.0000000E+000, 0.0434938
 2280, 96.0001, 0.9725, 2.63279e-13, 0.0000000E+000, 0.0434918
 2430, 101, 0.9725, 6.58164e-19, 0.0000000E+000, 0.0434918
 2580, 106, 0.9725, 1.27292e-27, 0.0000000E+000, 0.0434918
 2730, 111, 0.9725, 0.0000000E+000, 0.0000000E+000, 0.0434918
 2880, 116, 0.9725, 0.0000000E+000, 0.0000000E+000, 0.0434918
 3030, 121, 0.9725, 0.0000000E+000, 0.0000000E+000, 0.0434918
 3180, 126, 0.9725, 0.0000000E+000, 5.13521e-38, 0.0434918
 3330, 131, 0.9725, 0.0000000E+000, 2.35092e-37, 0.0434918
 3480, 136, 0.9725, 0.0000000E+000, 1.03698e-36, 0.0434918
 3630, 141, 0.9725, 0.0000000E+000, 4.41306e-36, 0.0434918
 3780, 146, 0.9725, 0.0000000E+000, 1.81428e-35, 0.0434918
 3930, 151, 0.9725, 0.0000000E+000, 7.21427e-35, 0.0434918
 4080, 156, 0.9725, 0.0000000E+000, 2.77787e-34, 0.0434918
 4230, 161, 0.9725, 2.5923e-38, 1.03692e-33, 0.0434918
 4380, 166, 0.9725, 9.39056e-38, 3.75623e-33, 0.0434918
 4530, 171, 0.9725, 3.30455e-37, 1.32182e-32, 0.0434918
 4680, 176, 0.9725, 1.13075e-36, 4.52301e-32, 0.0434918
 4830, 181, 0.9725, 3.76582e-36, 1.50633e-31, 0.0434918
 4980, 186, 0.9725, 1.22172e-35, 4.88687e-31, 0.0434918
 5130, 191, 0.9725, 3.8643e-35, 1.54572e-30, 0.0434918
 5280, 196, 0.9725, 1.19265e-34, 4.77058e-30, 0.0434918
 5430, 201, 0.9725, 3.59442e-34, 1.43777e-29, 0.0434918
 5580, 206, 0.9725, 1.05864e-33, 4.23456e-29, 0.0434918
 5730, 211, 0.9725, 3.04914e-33, 1.21965e-28, 0.0434918
 5880, 216, 0.9725, 8.59436e-33, 3.43774e-28, 0.0434918
 6030, 221, 0.9725, 2.37215e-32, 9.48861e-28, 0.0434918
 6180, 226, 0.9725, 6.41562e-32, 2.56625e-27, 0.0434918
 6330, 231, 0.9725, 1.70123e-31, 6.80493e-27, 0.0434918
 6480, 236, 0.9725, 4.42558e-31, 1.77023e-26, 0.0434918
 6630, 241, 0.9725, 1.13006e-30, 4.52024e-26, 0.0434918
 6780, 246, 0.9725, 2.83394e-30, 1.13357e-25, 0.0434918
 6930, 251, 0.9725, 6.9833e-30, 2.79332e-25, 0.0434918
 7080, 256, 0.9725, 1.69173e-29, 6.7669e-25, 0.0434919
 7230, 261, 0.9725, 4.03093e-29, 1.61237e-24, 0.0434918
 7380, 266, 0.9725, 9.45118e-29, 3.78047e-24, 0.0434918
 7530, 271, 0.9725, 2.18155e-28, 8.72622e-24, 0.0434918
 7680, 276, 0.9725, 4.95942e-28, 1.98377e-23, 0.0434918
 7830, 281, 0.9725, 1.11086e-27, 4.44344e-23, 0.0434918
 7980, 286, 0.9725, 2.45259e-27, 9.81034e-23, 0.0434918
 8130, 291, 0.9725, 5.3394e-27, 2.13576e-22, 0.0434918
 8280, 296, 0.9725, 1.14663e-26, 4.58652e-22, 0.0434918
 8430, 301, 0.9725, 2.42982e-26, 9.71927e-22, 0.0434918
 8580, 306, 0.9725, 5.08268e-26, 2.03307e-21, 0.0434918
 8730, 311, 0.9725, 1.04984e-25, 4.19937e-21, 0.0434918
 8880, 316, 0.9725, 2.14195e-25, 8.56779e-21, 0.0434918
 9030, 321, 0.9725, 4.31798e-25, 1.72719e-20, 0.0434918
 9180, 326, 0.9725, 8.60343e-25, 3.44137e-20, 0.0434918
 9330, 331, 0.9725, 1.69475e-24, 6.77902e-20, 0.0434918
 9480, 336, 0.9725, 3.30148e-24, 1.32059e-19, 0.0434918
 9630, 341, 0.9725, 6.36201e-24, 2.5448e-19, 0.0434918
 9780, 346, 0.9725, 1.21305e-23, 4.8522e-19, 0.0434918
 9930, 351, 0.9725, 2.28914e-23, 9.15657e-19, 0.0434918
 10080, 356, 0.9725, 4.27645e-23, 1.71058e-18, 0.0434919
 10230, 361, 0.9725, 7.91068e-23, 3.16427e-18, 0.0434918
 10380, 366, 0.9725, 1.44932e-22, 5.79729e-18, 0.0434918
 10530, 371, 0.9725, 2.63047e-22, 1.05219e-17, 0.0434918
 10680, 376, 0.9725, 4.73059e-22, 1.89223e-17, 0.0434918
 10830, 381, 0.9725, 8.4314e-22, 3.37256e-17, 0.0434918
 10980, 386, 0.9725, 1.48962e-21, 5.9585e-17, 0.0434918
 11130, 391, 0.9725, 2.60935e-21, 1.04374e-16, 0.0434918
 11280, 396, 0.9725, 4.53262e-21, 1.81305e-16, 0.0434918
 11430, 401, 0.9725, 7.80924e-21, 3.1237e-16, 0.0434918
 11580, 406, 0.9725, 1.33472e-20, 5.33888e-16, 0.0434918
 11730, 411, 0.9725, 2.26344e-20, 9.05375e-16, 0.0434918
 11880, 416, 0.9725, 3.80907e-20, 1.52363e-15, 0.0434918
 12030, 421, 0.9725, 6.36227e-20, 2.54491e-15, 0.0434918
 12180, 426, 0.9725, 1.05492e-19, 4.21968e-15, 0.0434918
 12330, 431, 0.9725, 1.73663e-19, 6.94652e-15, 0.0434918
 12480, 436, 0.9725, 2.83885e-19, 1.13554e-14, 0.0434918
 12630, 441, 0.9725, 4.60882e-19, 1.84353e-14, 0.0434918
 12780, 446, 0.9725, 7.43207e-19, 2.97283e-14, 0.0434918
 12930, 451, 0.9725, 1.1906e-18, 4.76238e-14, 0.0434918
 13080, 456, 0.9725, 1.89501e-18, 7.58005e-14, 0.0434918
 13230, 461, 0.9725, 2.99717e-18, 1.19887e-13, 0.0434918
 13380, 466, 0.9725, 4.71103e-18, 1.88441e-13, 0.0434918
 13530, 471, 0.9725, 7.36006e-18, 2.94402e-13, 0.0434918
 13680, 476, 0.9725, 1.14304e-17, 4.57215e-13, 0.0434918
 13830, 481, 0.9725, 1.76484e-17, 7.05935e-13, 0.0434918
 13980, 486, 0.9725, 2.70934e-17, 1.08374e-12, 0.0434918
 14130, 491, 0.9725, 4.13606e-17, 1.65442e-12, 0.0434918
 14280, 496, 0.9725, 6.27944e-17, 2.51178e-12, 0.0434918
 14430, 501, 0.9725, 9.48228e-17, 3.79291e-12, 0.0434918
 14580, 506, 0.9725, 1.42432e-16, 5.69728e-12, 0.0434918
 14730, 511, 0.9725, 2.12838e-16, 8.51352e-12, 0.0434918
 14880, 516, 0.9725, 3.16432e-16, 1.26573e-11, 0.0434918
 15030, 521, 0.9725, 4.68104e-16, 1.87241e-11, 0.0434918
 15180, 526, 0.9725, 6.8909e-16, 2.75636e-11, 0.0434918
 15330, 531, 0.9725, 1.00954e-15, 4.03814e-11, 0.0434918
 15480, 536, 0.9725, 1.47203e-15, 5.88814e-11, 0.0434918
 15630, 541, 0.9725, 2.1365e-15, 8.54599e-11, 0.0434917
 15780, 546, 0.9725, 3.08682e-15, 1.23473e-10, 0.0434918
 15930, 551, 0.9725, 4.43999e-15, 1.77599e-10, 0.0434918
 16080, 556, 0.9725, 6.3584e-15, 2.54336e-10, 0.0434918
 16230, 561, 0.9725, 9.06659e-15, 3.62664e-10, 0.0434918
 16380, 566, 0.9725, 1.28737e-14, 5.14949e-10, 0.0434918
 16530, 571, 0.9725, 1.82037e-14, 7.28149e-10, 0.0434918
 16680, 576, 0.9725, 2.56357e-14, 1.02543e-09, 0.0434918
 16830, 581, 0.9725, 3.59574e-14, 1.4383e-09, 0.0434918
 16980, 586, 0.9725, 5.02368e-14, 2.00947e-09, 0.0434918
 17130, 591, 0.9725, 6.99157e-14, 2.79663e-09, 0.0434918
 17280, 596, 0.9725, 9.6934e-14, 3.87736e-09, 0.0434918
 17430, 601, 0.9725, 1.33892e-13, 5.35567e-09, 0.0434918
 17580, 606, 0.9725, 1.84262e-13, 7.37048e-09, 0.0434918
 17730, 611, 0.9725, 2.52668e-13, 1.01067e-08, 0.0434918
 17880, 616, 0.9725, 3.4524e-13, 1.38096e-08, 0.0434918
 18030, 621, 0.9725, 4.70085e-13, 1.88034e-08, 0.0434918
 18180, 626, 0.9725, 6.37883e-13, 2.55153e-08, 0.0434918
 18330, 631, 0.9725, 8.62659e-13, 3.45064e-08, 0.0434918
 18480, 636, 0.9725, 1.16278e-12, 4.6511e-08, 0.0434917
 18630, 641, 0.9725, 1.56219e-12, 6.24876e-08, 0.0434918
 18780, 646, 0.9725, 2.09207e-12, 8.36829e-08, 0.0434918
 18930, 651, 0.9725, 2.79284e-12, 1.11714e-07, 0.0434918
 19080, 656, 0.9725, 3.71678e-12, 1.48671e-07, 0.0434918
 19230, 661, 0.9725, 4.93126e-12, 1.9725e-07, 0.0434918
 19380, 666, 0.9725, 6.52291e-12, 2.60917e-07, 0.0434918
 19530, 671, 0.9725, 8.60278e-12, 3.44111e-07, 0.0434918
 19680, 676, 0.9725, 1.13128e-11, 4.52511e-07, 0.0434919
 19830, 681, 0.9725, 1.48338e-11, 5.93353e-07, 0.0434917
 19980, 686, 0.9725, 1.93959e-11, 7.75837e-07, 0.0434918
 20130, 691, 0.9725, 2.52907e-11, 1.01163e-06, 0.0434918
 20280, 696, 0.9725, 3.28867e-11, 1.31547e-06, 0.0434918
 20430, 701, 0.9725, 4.26491e-11, 1.70596e-06, 0.0434919
 20580, 706, 0.9725, 5.51627e-11, 2.20651e-06, 0.0434918
 20730, 711, 0.9725, 7.11618e-11, 2.84647e-06, 0.0434918
 20880, 716, 0.9725, 9.15651e-11, 3.6626e-06, 0.0434919
 21030, 721, 0.9725, 1.1752e-10, 4.7008e-06, 0.0434918
 21180, 726, 0.9725, 1.50456e-10, 6.01822e-06, 0.0434918
 21330, 731, 0.9725, 1.92148e-10, 7.68593e-06, 0.0434919
 21480, 736, 0.9725, 2.448e-10, 9.79202e-06, 0.0434919
 21630, 741, 0.9725, 3.11136e-10, 1.24455e-05, 0.0434919
 21780, 746, 0.9725, 3.94519e-10, 1.57807e-05, 0.0434919
 21930, 751, 0.9725, 4.99088e-10, 1.99635e-05, 0.043492
 22080, 756, 0.9725, 6.29934e-10, 2.51974e-05, 0.043492
 22230, 761, 0.972499, 7.93296e-10, 3.17318e-05, 0.043492
 22380, 766, 0.972499, 9.96807e-10, 3.98723e-05, 0.043492
 22530, 771, 0.972499, 1.24979e-09, 4.99917e-05, 0.0434921
 22680, 776, 0.972499, 1.56361e-09, 6.25443e-05, 0.0434922
 22830, 781, 0.972499, 1.95207e-09, 7.80827e-05, 0.0434922
 22980, 786, 0.972498, 2.43194e-09, 9.72775e-05, 0.0434923
 23130, 791, 0.972498, 3.02352e-09, 0.000120941, 0.0434925
 23280, 796, 0.972497, 3.75135e-09, 0.000150054, 0.0434927
 23400, 800, 0.972497, 4.45144e-09, 0.000178057, 0.0434929