File: examples/Birch_TGA_Example/Best/birch_tga_1step_10_tga.csv
s,C,g/g,1/s,W/g,W/g
Time,Temp,Mass,MLR,MCC,DSC
 6, 21.0007, 0.975, 8.65181e-14, 3.46072e-09, 0.218018
 36, 26.0007, 0.975, 1.86289e-13, 7.45158e-09, 0.218018
 66, 31.0007, 0.975, 3.91128e-13, 1.56451e-08, 0.218018
 96, 36.0007, 0.975, 8.01731e-13, 3.20692e-08, 0.218018
 126, 41.0007, 0.975, 1.60626e-12, 6.42505e-08, 0.218018
 156, 46.0007, 0.975, 3.14882e-12, 1.25953e-07, 0.218018
 186, 51.0007, 0.975, 6.04591e-12, 2.41836e-07, 0.218018
 216, 56.0007, 0.975, 1.13807e-11, 4.55227e-07, 0.218018
 246, 61.0007, 0.975, 2.1021e-11, 8.40838e-07, 0.218018
 276, 66.0007, 0.975, 3.81311e-11, 1.52525e-06, 0.218018
 306, 71.0007, 0.975, 6.79817e-11, 2.71927e-06, 0.218018
 336, 76.0007, 0.975, 1.1921e-10, 4.7684e-06, 0.218018
 366, 81.0007, 0.975, 2.05753e-10, 8.2301e-06, 0.218018
 396, 86.0007, 0.975, 3.49767e-10, 1.39907e-05, 0.218019
 426, 91.0007, 0.975, 5.85981e-10, 2.34392e-05, 0.218019
 456, 96.0007, 0.975, 9.68094e-10, 3.87237e-05, 0.218019
 486, 101.001, 0.975, 1.57806e-09, 6.31225e-05, 0.218019
 516, 106.001, 0.975, 2.53942e-09, 0.000101577, 0.218019
 546, 111.001, 0.975, 4.03613e-09, 0.000161445, 0.218019
 576, 116.001, 0.975, 6.33906e-09, 0.000253563, 0.21802
 606, 121.001, 0.974999, 9.84263e-09, 0.000393705, 0.218021
 636, 126.001, 0.974999, 1.51151e-08, 0.000604602, 0.218022
 666, 131.001, 0.974998, 2.29667e-08, 0.000918667, 0.218024
 696, 136.001, 0.974998, 3.45419e-08, 0.00138168, 0.218027
 726, 141.001, 0.974996, 5.14416e-08, 0.00205766, 0.218031
 756, 146.001, 0.974994, 7.58848e-08, 0.00303539, 0.218037
 786, 151.001, 0.974992, 1.10921e-07, 0.00443685, 0.218045
 816, 156.001, 0.974988, 1.60706e-07, 0.00642824, 0.218058
 846, 161.001, 0.974982, 2.30855e-07, 0.00923421, 0.218075
 876, 166.001, 0.974974, 3.289e-07, 0.013156, 0.218098
 906, 171.001, 0.974962, 4.64863e-07, 0.0185945, 0.218131
 936, 176.001, 0.974945, 6.51985e-07, 0.0260794, 0.218176
 966, 181.001, 0.974922, 9.07637e-07, 0.0363055, 0.218238
 996, 186.001, 0.97489, 1.25445e-06, 0.0501779, 0.218321
 1026, 191.001, 0.974845, 1.7217e-06, 0.068868, 0.218433
 1056, 196.001, 0.974785, 2.34705e-06, 0.0938821, 0.218582
 1086, 201.001, 0.974703, 3.17861e-06, 0.127145, 0.21878
 1116, 206.001, 0.974591, 4.27747e-06, 0.171099, 0.219042
 1146, 211.001, 0.974442, 5.72074e-06, 0.22883, 0.219385
 1176, 216.001, 0.974244, 7.60515e-06, 0.304206, 0.219831
 1206, 221.001, 0.97398, 1.00513e-05, 0.402053, 0.22041
 1236, 226.001, 0.973634, 1.32089e-05, 0.528355, 0.221155
 1266, 231.001, 0.973179, 1.72621e-05, 0.690484, 0.222109
 1296, 236.001, 0.972587, 2.24367e-05, 0.89747, 0.223325
 1326, 241.001, 0.971819, 2.90075e-05, 1.1603, 0.224865
 1356, 246.001, 0.970829, 3.73066e-05, 1.49227, 0.226805
 1386, 251.001, 0.969559, 4.77326e-05, 1.90931, 0.229236
 1416, 256.001, 0.967939, 6.07602e-05, 2.43041, 0.232267
 1446, 261.001, 0.965882, 7.69499e-05, 3.07799, 0.236023
 1476, 266.001, 0.963283, 9.69566e-05, 3.87826, 0.240651
 1506, 271.001, 0.960018, 0.000121537, 4.86149, 0.246321
 1536, 276.001, 0.955937, 0.000151555, 6.06219, 0.253222
 1566, 281.001, 0.950861, 0.000187976, 7.51903, 0.261568
 1596, 286.001, 0.944583, 0.000231861, 9.27446, 0.271586
 1626, 291.001, 0.936863, 0.000284344, 11.3737, 0.283518
 1656, 296.001, 0.927424, 0.000346586, 13.8634, 0.297603
 1686, 301.001, 0.915958, 0.000419719, 16.7887, 0.314066
 1716, 306.001, 0.902121, 0.000504743, 20.1897, 0.333088
 1746, 311.001, 0.885546, 0.000602398, 24.0959, 0.354778
 1776, 316.001, 0.865847, 0.000712983, 28.5193, 0.379125
 1806, 321.001, 0.84264, 0.000836129, 33.4452, 0.405944
 1836, 326.001, 0.815565, 0.000970529, 38.8212, 0.434808
 1866, 331.001, 0.784319, 0.00111363, 44.5453, 0.464983
 1896, 336.001, 0.748699, 0.00126135, 50.4538, 0.495351
 1926, 341.001, 0.708649, 0.00140778, 56.3112, 0.52436
 1956, 346.001, 0.664321, 0.00154514, 61.8054, 0.550007
 1986, 351.001, 0.616126, 0.00166384, 66.5535, 0.569884
 2016, 356.001, 0.564785, 0.00175302, 70.1207, 0.581318
 2046, 361.001, 0.511352, 0.00180147, 72.0587, 0.581624
 2076, 366.001, 0.457205, 0.00179912, 71.9647, 0.568488
 2106, 371.001, 0.403985, 0.00173893, 69.5571, 0.540448
 2136, 376.001, 0.353471, 0.00161892, 64.7567, 0.497396
 2166, 381.001, 0.307404, 0.00144388, 57.7551, 0.440986
 2196, 386.001, 0.267271, 0.00122606, 49.0423, 0.37476
 2226, 391.001, 0.234084, 0.000984268, 39.3707, 0.303868
 2256, 396.001, 0.20823, 0.000741102, 29.6441, 0.234306
 2286, 401.001, 0.189411, 0.00051867, 20.7468, 0.171788
 2316, 406.001, 0.176732, 0.000333992, 13.3597, 0.12056
 2346, 411.001, 0.168907, 0.000195634, 7.82535, 0.0825661
 2376, 416.001, 0.164536, 0.000102902, 4.11609, 0.0573036
 2406, 421.001, 0.162355, 4.79086e-05, 1.91634, 0.0424172
 2436, 426.001, 0.161397, 1.94266e-05, 0.777066, 0.0347472
 2466, 431.001, 0.161033, 6.73817e-06, 0.269527, 0.0313448
 2496, 436.001, 0.160915, 1.95933e-06, 0.0783733, 0.0300678
 2526, 441.001, 0.160883, 4.67058e-07, 0.0186823, 0.0296701
 2556, 446.001, 0.160876, 8.90266e-08, 0.00356106, 0.0295697
 2586, 451.001, 0.160875, 1.31997e-08, 0.000527989, 0.0295497
 2616, 456.001, 0.160875, 1.47647e-09, 5.90588e-05, 0.0295465
 2646, 461.001, 0.160875, 1.20452e-10, 4.81807e-06, 0.0295461
 2676, 466.001, 0.160875, 6.90425e-12, 2.7617e-07, 0.0295462
 2706, 471.001, 0.160875, 2.66846e-13, 1.06738e-08, 0.029546
 2736, 476.001, 0.160875, 6.64615e-15, 2.65846e-10, 0.0295461
 2766, 481.001, 0.160875, 1.01489e-16, 4.05957e-12, 0.0295462
 2796, 486.001, 0.160875, 8.99652e-19, 3.59861e-14, 0.0295461
 2826, 491.001, 0.160875, 4.36031e-21, 1.74412e-16, 0.0295462
 2856, 496.001, 0.160875, 1.08211e-23, 4.32845e-19, 0.0295462
 2886, 501.001, 0.160875, 1.28e-26, 5.11998e-22, 0.0295461
 2916, 506.001, 0.160875, 6.67329e-30, 2.66932e-25, 0.0295461
 2946, 511.001, 0.160875, 1.40802e-33, 5.63209e-29, 0.0295461
 2976, 516.001, 0.160875, 1.09562e-37, 4.38246e-33, 0.0295462
 3006, 521.001, 0.160875, 0.0000000E+000, 1.1367e-37, 0.0295461
 3036, 526.001, 0.160875, 0.0000000E+000, 0.0000000E+000, 0.0295461
 3066, 531.001, 0.160875, 0.0000000E+000, 0.0000000E+000, 0.0295461
 3096, 536.001, 0.160875, 0.0000000E+000, 0.0000000E+000, 0.0295462
 3126, 541.001, 0.160875, 0.0000000E+000, 0.0000000E+000, 0.0295461
 3156, 546.001, 0.160875, 0.0000000E+000, 0.0000000E+000, 0.0295461
 3186, 551.001, 0.160875, 0.0000000E+000, 0.0000000E+000, 0.029546
 3216, 556.001, 0.160875, 0.0000000E+000, 0.0000000E+000, 0.0295462
 3246, 561.001, 0.160875, 0.0000000E+000, 0.0000000E+000, 0.0295461
 3276, 566.001, 0.160875, 0.0000000E+000, 0.0000000E+000, 0.0295461
 3306, 571.001, 0.160875, 0.0000000E+000, 0.0000000E+000, 0.0295462
 3336, 576.001, 0.160875, 0.0000000E+000, 0.0000000E+000, 0.0295461
 3366, 581.001, 0.160875, 0.0000000E+000, 0.0000000E+000, 0.0295461
 3396, 586.001, 0.160875, 0.0000000E+000, 0.0000000E+000, 0.0295461
 3426, 591.001, 0.160875, 0.0000000E+000, 0.0000000E+000, 0.0295462
 3456, 596.001, 0.160875, 0.0000000E+000, 0.0000000E+000, 0.0295461
 3486, 601.001, 0.160875, 0.0000000E+000, 0.0000000E+000, 0.0295461
 3516, 606.001, 0.160875, 0.0000000E+000, 0.0000000E+000, 0.0295462
 3546, 611.001, 0.160875, 0.0000000E+000, 0.0000000E+000, 0.0295461
 3576, 616.001, 0.160875, 0.0000000E+000, 0.0000000E+000, 0.0295461
 3606, 621.001, 0.160875, 0.0000000E+000, 0.0000000E+000, 0.0295462
 3636, 626.001, 0.160875, 0.0000000E+000, 0.0000000E+000, 0.0295461
 3666, 631.001, 0.160875, 0.0000000E+000, 0.0000000E+000, 0.0295462
 3696, 636.001, 0.160875, 0.0000000E+000, 0.0000000E+000, 0.0295461
 3726, 641.001, 0.160875, 0.0000000E+000, 0.0000000E+000, 0.0295461
 3756, 646.001, 0.160875, 0.0000000E+000, 0.0000000E+000, 0.0295461
 3786, 651.001, 0.160875, 0.0000000E+000, 0.0000000E+000, 0.0295461
 3816, 656.001, 0.160875, 0.0000000E+000, 0.0000000E+000, 0.0295461
 3846, 661.001, 0.160875, 0.0000000E+000, 0.0000000E+000, 0.0295462
 3876, 666.001, 0.160875, 0.0000000E+000, 0.0000000E+000, 0.0295462
 3906, 671.001, 0.160875, 0.0000000E+000, 0.0000000E+000, 0.0295461
 3936, 676.001, 0.160875, 0.0000000E+000, 0.0000000E+000, 0.0295461
 3966, 681.001, 0.160875, 0.0000000E+000, 0.0000000E+000, 0.0295461
 3996, 686.001, 0.160875, 0.0000000E+000, 0.0000000E+000, 0.0295462
 4026, 691.001, 0.160875, 0.0000000E+000, 0.0000000E+000, 0.0295461
 4056, 696.001, 0.160875, 0.0000000E+000, 0.0000000E+000, 0.0295461
 4086, 701.001, 0.160875, 0.0000000E+000, 0.0000000E+000, 0.0295461
 4116, 706.001, 0.160875, 0.0000000E+000, 0.0000000E+000, 0.0295461
 4146, 711.001, 0.160875, 0.0000000E+000, 0.0000000E+000, 0.0295461
 4176, 716.001, 0.160875, 0.0000000E+000, 0.0000000E+000, 0.0295461
 4206, 721.001, 0.160875, 0.0000000E+000, 0.0000000E+000, 0.0295461
 4236, 726.001, 0.160875, 0.0000000E+000, 0.0000000E+000, 0.0295462
 4266, 731.001, 0.160875, 0.0000000E+000, 0.0000000E+000, 0.0295461
 4296, 736.001, 0.160875, 0.0000000E+000, 0.0000000E+000, 0.0295461
 4326, 741.001, 0.160875, 0.0000000E+000, 0.0000000E+000, 0.0295461
 4356, 746.001, 0.160875, 0.0000000E+000, 0.0000000E+000, 0.0295462
 4386, 751.001, 0.160875, 0.0000000E+000, 0.0000000E+000, 0.0295461
 4416, 756.001, 0.160875, 0.0000000E+000, 0.0000000E+000, 0.029546
 4446, 761.001, 0.160875, 0.0000000E+000, 0.0000000E+000, 0.0295462
 4476, 766.001, 0.160875, 0.0000000E+000, 0.0000000E+000, 0.0295461
 4506, 771.001, 0.160875, 0.0000000E+000, 0.0000000E+000, 0.0295461
 4536, 776.001, 0.160875, 0.0000000E+000, 0.0000000E+000, 0.0295462
 4566, 781.001, 0.160875, 0.0000000E+000, 0.0000000E+000, 0.0295461
 4596, 786.001, 0.160875, 0.0000000E+000, 0.0000000E+000, 0.0295462
 4626, 791.001, 0.160875, 0.0000000E+000, 0.0000000E+000, 0.0295462
 4656, 796.001, 0.160875, 0.0000000E+000, 0.0000000E+000, 0.0295462
 4680, 800.001, 0.160875, 0.0000000E+000, 0.0000000E+000, 0.0295463