File: examples/Birch_TGA_Example/Best/birch_tga_1step_2_tga.csv
s,C,g/g,1/s,W/g,W/g
Time,Temp,Mass,MLR,MCC,DSC
 30, 21.0001, 0.9725, 8.52729e-14, 3.41092e-09, 0.0434918
 180, 26.0001, 0.9725, 1.83608e-13, 7.34431e-09, 0.0434918
 330, 31.0001, 0.9725, 3.85496e-13, 1.54198e-08, 0.0434918
 480, 36.0001, 0.9725, 7.90184e-13, 3.16073e-08, 0.0434918
 630, 41.0001, 0.9725, 1.58312e-12, 6.33249e-08, 0.0434918
 780, 46.0001, 0.9725, 3.10345e-12, 1.24138e-07, 0.0434918
 930, 51.0001, 0.9725, 5.95877e-12, 2.38351e-07, 0.0434918
 1080, 56.0001, 0.9725, 1.12166e-11, 4.48664e-07, 0.0434918
 1230, 61.0001, 0.9725, 2.07179e-11, 8.28715e-07, 0.0434918
 1380, 66.0001, 0.9725, 3.75813e-11, 1.50325e-06, 0.0434918
 1530, 71.0001, 0.9725, 6.70012e-11, 2.68005e-06, 0.0434918
 1680, 76.0001, 0.9725, 1.1749e-10, 4.69961e-06, 0.0434918
 1830, 81.0001, 0.9725, 2.02784e-10, 8.11136e-06, 0.0434919
 1980, 86.0001, 0.9725, 3.44719e-10, 1.37888e-05, 0.0434919
 2130, 91.0001, 0.9725, 5.77523e-10, 2.31009e-05, 0.0434919
 2280, 96.0001, 0.9725, 9.54119e-10, 3.81648e-05, 0.043492
 2430, 101, 0.9725, 1.55528e-09, 6.22112e-05, 0.0434922
 2580, 106, 0.972499, 2.50275e-09, 0.00010011, 0.0434924
 2730, 111, 0.972499, 3.97784e-09, 0.000159114, 0.0434928
 2880, 116, 0.972498, 6.2475e-09, 0.0002499, 0.0434934
 3030, 121, 0.972497, 9.70043e-09, 0.000388017, 0.0434942
 3180, 126, 0.972495, 1.48966e-08, 0.000595865, 0.0434955
 3330, 131, 0.972492, 2.26347e-08, 0.000905388, 0.0434974
 3480, 136, 0.972488, 3.40424e-08, 0.0013617, 0.0435002
 3630, 141, 0.972482, 5.06973e-08, 0.00202789, 0.0435044
 3780, 146, 0.972472, 7.47861e-08, 0.00299145, 0.0435103
 3930, 151, 0.972459, 1.09314e-07, 0.00437254, 0.0435188
 4080, 156, 0.972439, 1.58373e-07, 0.00633494, 0.0435308
 4230, 161, 0.97241, 2.27498e-07, 0.00909991, 0.0435478
 4380, 166, 0.972369, 3.24103e-07, 0.0129641, 0.0435715
 4530, 171, 0.972311, 4.58056e-07, 0.0183222, 0.0436042
 4680, 176, 0.972229, 6.42385e-07, 0.0256954, 0.0436492
 4830, 181, 0.972115, 8.94169e-07, 0.0357668, 0.0437105
 4980, 186, 0.971957, 1.23564e-06, 0.0494255, 0.0437935
 5130, 191, 0.971739, 1.69551e-06, 0.0678205, 0.043905
 5280, 196, 0.97144, 2.31066e-06, 0.0924265, 0.044054
 5430, 201, 0.971035, 3.12806e-06, 0.125122, 0.0442514
 5580, 206, 0.970489, 4.20714e-06, 0.168286, 0.0445115
 5730, 211, 0.969756, 5.62255e-06, 0.224902, 0.044852
 5880, 216, 0.968781, 7.46731e-06, 0.298692, 0.0452948
 6030, 221, 0.967489, 9.85639e-06, 0.394255, 0.0458669
 6180, 226, 0.965789, 1.29306e-05, 0.517223, 0.0466013
 6330, 231, 0.963567, 1.68606e-05, 0.674425, 0.047538
 6480, 236, 0.960678, 2.1851e-05, 0.874042, 0.0487242
 6630, 241, 0.956947, 2.81436e-05, 1.12574, 0.0502158
 6780, 246, 0.952156, 3.6019e-05, 1.44076, 0.052077
 6930, 251, 0.946046, 4.57968e-05, 1.83187, 0.0543804
 7080, 256, 0.938304, 5.78302e-05, 2.31321, 0.0572047
 7230, 261, 0.928565, 7.24952e-05, 2.89981, 0.0606326
 7380, 266, 0.916405, 9.01701e-05, 3.6068, 0.0647445
 7530, 271, 0.901346, 0.000111202, 4.44807, 0.0696099
 7680, 276, 0.882863, 0.000135855, 5.4342, 0.0752746
 7830, 281, 0.860402, 0.000164241, 6.56964, 0.0817424
 7980, 286, 0.83341, 0.000196222, 7.84888, 0.0889511
 8130, 291, 0.80138, 0.000231294, 9.25177, 0.096744
 8280, 296, 0.763916, 0.000268456, 10.7382, 0.104838
 8430, 301, 0.720818, 0.000306082, 12.2433, 0.112794
 8580, 306, 0.672183, 0.000341839, 13.6735, 0.119998
 8730, 311, 0.61851, 0.00037269, 14.9076, 0.125672
 8880, 316, 0.560799, 0.000395063, 15.8025, 0.128916
 9030, 321, 0.500602, 0.000405239, 16.2096, 0.128818
 9180, 326, 0.440001, 0.000399991, 15.9996, 0.124622
 9330, 331, 0.381474, 0.000377425, 15.097, 0.11594
 9480, 336, 0.327629, 0.000337847, 13.5139, 0.102972
 9630, 341, 0.280822, 0.00028434, 11.3736, 0.0866441
 9780, 346, 0.242739, 0.000222676, 8.90703, 0.0685598
 9930, 351, 0.214054, 0.000160327, 6.41309, 0.0507279
 10080, 356, 0.194303, 0.000104668, 4.18671, 0.0350789
 10230, 361, 0.18205, 6.09748e-05, 2.43899, 0.0229442
 10380, 366, 0.175313, 3.11205e-05, 1.24482, 0.0147284
 10530, 371, 0.172092, 1.36261e-05, 0.545044, 0.00994766
 10680, 376, 0.170782, 4.99675e-06, 0.19987, 0.00760228
 10830, 381, 0.170339, 1.49313e-06, 0.0597251, 0.00665425
 10980, 386, 0.170218, 3.52425e-07, 0.014097, 0.00634665
 11130, 391, 0.170192, 6.34214e-08, 0.00253685, 0.0062689
 11280, 396, 0.170188, 8.36009e-09, 0.000334404, 0.00625413
 11430, 401, 0.170188, 7.71504e-10, 3.08601e-05, 0.00625214
 11580, 406, 0.170187, 4.73643e-11, 1.89457e-06, 0.00625194
 11730, 411, 0.170187, 1.82644e-12, 7.30576e-08, 0.00625192
 11880, 416, 0.170187, 4.14748e-14, 1.65899e-09, 0.00625188
 12030, 421, 0.170187, 5.15916e-16, 2.06366e-11, 0.00625191
 12180, 426, 0.170187, 3.24224e-18, 1.29689e-13, 0.00625188
 12330, 431, 0.170187, 9.40438e-21, 3.76175e-16, 0.00625199
 12480, 436, 0.170187, 1.13834e-23, 4.55337e-19, 0.0062519
 12630, 441, 0.170187, 5.14006e-27, 2.05603e-22, 0.00625193
 12780, 446, 0.170187, 7.64368e-31, 3.05747e-26, 0.00625191
 12930, 451, 0.170187, 3.26025e-35, 1.3041e-30, 0.00625187
 13080, 456, 0.170187, 0.0000000E+000, 1.36899e-35, 0.00625198
 13230, 461, 0.170187, 0.0000000E+000, 0.0000000E+000, 0.00625201
 13380, 466, 0.170187, 0.0000000E+000, 0.0000000E+000, 0.00625192
 13530, 471, 0.170187, 0.0000000E+000, 0.0000000E+000, 0.00625199
 13680, 476, 0.170187, 0.0000000E+000, 0.0000000E+000, 0.00625197
 13830, 481, 0.170187, 0.0000000E+000, 0.0000000E+000, 0.00625192
 13980, 486, 0.170187, 0.0000000E+000, 0.0000000E+000, 0.00625195
 14130, 491, 0.170187, 0.0000000E+000, 0.0000000E+000, 0.00625201
 14280, 496, 0.170187, 0.0000000E+000, 0.0000000E+000, 0.00625194
 14430, 501, 0.170187, 0.0000000E+000, 0.0000000E+000, 0.00625196
 14580, 506, 0.170187, 0.0000000E+000, 0.0000000E+000, 0.00625193
 14730, 511, 0.170187, 0.0000000E+000, 0.0000000E+000, 0.00625193
 14880, 516, 0.170187, 0.0000000E+000, 0.0000000E+000, 0.00625196
 15030, 521, 0.170187, 0.0000000E+000, 0.0000000E+000, 0.0062519
 15180, 526, 0.170187, 0.0000000E+000, 0.0000000E+000, 0.00625194
 15330, 531, 0.170187, 0.0000000E+000, 0.0000000E+000, 0.00625198
 15480, 536, 0.170187, 0.0000000E+000, 0.0000000E+000, 0.00625199
 15630, 541, 0.170187, 0.0000000E+000, 0.0000000E+000, 0.00625195
 15780, 546, 0.170187, 0.0000000E+000, 0.0000000E+000, 0.00625195
 15930, 551, 0.170187, 0.0000000E+000, 0.0000000E+000, 0.00625197
 16080, 556, 0.170187, 0.0000000E+000, 0.0000000E+000, 0.00625198
 16230, 561, 0.170187, 0.0000000E+000, 0.0000000E+000, 0.0062519
 16380, 566, 0.170187, 0.0000000E+000, 0.0000000E+000, 0.00625194
 16530, 571, 0.170187, 0.0000000E+000, 0.0000000E+000, 0.00625189
 16680, 576, 0.170187, 0.0000000E+000, 0.0000000E+000, 0.00625192
 16830, 581, 0.170187, 0.0000000E+000, 0.0000000E+000, 0.00625196
 16980, 586, 0.170187, 0.0000000E+000, 0.0000000E+000, 0.00625193
 17130, 591, 0.170187, 0.0000000E+000, 0.0000000E+000, 0.00625189
 17280, 596, 0.170187, 0.0000000E+000, 0.0000000E+000, 0.00625199
 17430, 601, 0.170187, 0.0000000E+000, 0.0000000E+000, 0.00625189
 17580, 606, 0.170187, 0.0000000E+000, 0.0000000E+000, 0.00625196
 17730, 611, 0.170187, 0.0000000E+000, 0.0000000E+000, 0.00625197
 17880, 616, 0.170187, 0.0000000E+000, 0.0000000E+000, 0.00625194
 18030, 621, 0.170187, 0.0000000E+000, 0.0000000E+000, 0.00625195
 18180, 626, 0.170187, 0.0000000E+000, 0.0000000E+000, 0.00625193
 18330, 631, 0.170187, 0.0000000E+000, 0.0000000E+000, 0.00625201
 18480, 636, 0.170187, 0.0000000E+000, 0.0000000E+000, 0.00625197
 18630, 641, 0.170187, 0.0000000E+000, 0.0000000E+000, 0.00625187
 18780, 646, 0.170187, 0.0000000E+000, 0.0000000E+000, 0.00625194
 18930, 651, 0.170187, 0.0000000E+000, 0.0000000E+000, 0.00625192
 19080, 656, 0.170187, 0.0000000E+000, 0.0000000E+000, 0.00625191
 19230, 661, 0.170187, 0.0000000E+000, 0.0000000E+000, 0.00625193
 19380, 666, 0.170187, 0.0000000E+000, 0.0000000E+000, 0.00625191
 19530, 671, 0.170187, 0.0000000E+000, 0.0000000E+000, 0.00625188
 19680, 676, 0.170187, 0.0000000E+000, 0.0000000E+000, 0.00625196
 19830, 681, 0.170187, 0.0000000E+000, 0.0000000E+000, 0.00625192
 19980, 686, 0.170187, 0.0000000E+000, 0.0000000E+000, 0.00625202
 20130, 691, 0.170187, 0.0000000E+000, 0.0000000E+000, 0.00625197
 20280, 696, 0.170187, 0.0000000E+000, 0.0000000E+000, 0.00625195
 20430, 701, 0.170187, 0.0000000E+000, 0.0000000E+000, 0.00625197
 20580, 706, 0.170187, 0.0000000E+000, 0.0000000E+000, 0.00625191
 20730, 711, 0.170187, 0.0000000E+000, 0.0000000E+000, 0.00625198
 20880, 716, 0.170187, 0.0000000E+000, 0.0000000E+000, 0.00625194
 21030, 721, 0.170187, 0.0000000E+000, 0.0000000E+000, 0.00625199
 21180, 726, 0.170187, 0.0000000E+000, 0.0000000E+000, 0.00625186
 21330, 731, 0.170187, 0.0000000E+000, 0.0000000E+000, 0.00625188
 21480, 736, 0.170187, 0.0000000E+000, 0.0000000E+000, 0.00625193
 21630, 741, 0.170187, 0.0000000E+000, 0.0000000E+000, 0.0062519
 21780, 746, 0.170187, 0.0000000E+000, 0.0000000E+000, 0.00625199
 21930, 751, 0.170187, 0.0000000E+000, 0.0000000E+000, 0.00625197
 22080, 756, 0.170187, 0.0000000E+000, 0.0000000E+000, 0.00625187
 22230, 761, 0.170187, 0.0000000E+000, 0.0000000E+000, 0.00625182
 22380, 766, 0.170187, 0.0000000E+000, 0.0000000E+000, 0.00625201
 22530, 771, 0.170187, 0.0000000E+000, 0.0000000E+000, 0.00625191
 22680, 776, 0.170187, 0.0000000E+000, 0.0000000E+000, 0.00625196
 22830, 781, 0.170187, 0.0000000E+000, 0.0000000E+000, 0.006252
 22980, 786, 0.170187, 0.0000000E+000, 0.0000000E+000, 0.00625183
 23130, 791, 0.170187, 0.0000000E+000, 0.0000000E+000, 0.00625193
 23280, 796, 0.170187, 0.0000000E+000, 0.0000000E+000, 0.00625204
 23400, 800, 0.170187, 0.0000000E+000, 0.0000000E+000, 0.00625193