File: examples/Birch_TGA_Example/Best/birch_tga_1step_20_tga.csv
s,C,g/g,1/s,W/g,W/g
Time,Temp,Mass,MLR,MCC,DSC
 3, 21.0014, 0.9875, 8.76142e-14, 3.50457e-09, 0.441631
 18, 26.0014, 0.9875, 1.88651e-13, 7.54603e-09, 0.441631
 33, 31.0014, 0.9875, 3.96087e-13, 1.58435e-08, 0.441631
 48, 36.0014, 0.9875, 8.119e-13, 3.2476e-08, 0.441631
 63, 41.0014, 0.9875, 1.62664e-12, 6.50657e-08, 0.441631
 78, 46.0014, 0.9875, 3.18879e-12, 1.27552e-07, 0.441631
 93, 51.0014, 0.9875, 6.12267e-12, 2.44907e-07, 0.441631
 108, 56.0014, 0.9875, 1.15252e-11, 4.61008e-07, 0.441631
 123, 61.0014, 0.9875, 2.1288e-11, 8.5152e-07, 0.441631
 138, 66.0014, 0.9875, 3.86157e-11, 1.54463e-06, 0.441631
 153, 71.0014, 0.9875, 6.88458e-11, 2.75383e-06, 0.441631
 168, 76.0014, 0.9875, 1.20726e-10, 4.82902e-06, 0.441631
 183, 81.0014, 0.9875, 2.08369e-10, 8.33476e-06, 0.441631
 198, 86.0014, 0.9875, 3.54215e-10, 1.41686e-05, 0.441631
 213, 91.0014, 0.9875, 5.93435e-10, 2.37374e-05, 0.441631
 228, 96.0014, 0.9875, 9.80412e-10, 3.92165e-05, 0.441631
 243, 101.001, 0.9875, 1.59815e-09, 6.39258e-05, 0.441631
 258, 106.001, 0.9875, 2.57174e-09, 0.00010287, 0.441632
 273, 111.001, 0.9875, 4.08752e-09, 0.000163501, 0.441632
 288, 116.001, 0.9875, 6.41979e-09, 0.000256792, 0.441632
 303, 121.001, 0.9875, 9.96799e-09, 0.00039872, 0.441633
 318, 126.001, 0.987499, 1.53076e-08, 0.000612304, 0.441635
 333, 131.001, 0.987499, 2.32593e-08, 0.000930373, 0.441637
 348, 136.001, 0.987499, 3.49821e-08, 0.00139928, 0.441639
 363, 141.001, 0.987498, 5.20973e-08, 0.00208389, 0.441644
 378, 146.001, 0.987497, 7.68523e-08, 0.00307409, 0.44165
 393, 151.001, 0.987496, 1.12336e-07, 0.00449343, 0.441658
 408, 156.001, 0.987494, 1.62756e-07, 0.00651025, 0.441671
 423, 161.001, 0.987491, 2.33802e-07, 0.00935206, 0.441688
 438, 166.001, 0.987487, 3.331e-07, 0.013324, 0.441712
 453, 171.001, 0.987481, 4.70803e-07, 0.0188321, 0.441745
 468, 176.001, 0.987472, 6.60324e-07, 0.026413, 0.441791
 483, 181.001, 0.98746, 9.1926e-07, 0.0367704, 0.441853
 498, 186.001, 0.987444, 1.27054e-06, 0.0508215, 0.441937
 513, 191.001, 0.987422, 1.74383e-06, 0.0697534, 0.44205
 528, 196.001, 0.987391, 2.37732e-06, 0.0950927, 0.442202
 543, 201.001, 0.987349, 3.21977e-06, 0.128791, 0.442403
 558, 206.001, 0.987293, 4.33316e-06, 0.173326, 0.442668
 573, 211.001, 0.987218, 5.79575e-06, 0.23183, 0.443015
 588, 216.001, 0.987117, 7.70581e-06, 0.308232, 0.443468
 603, 221.001, 0.986984, 1.0186e-05, 0.407442, 0.444055
 618, 226.001, 0.986808, 1.33888e-05, 0.535551, 0.44481
 633, 231.001, 0.986577, 1.75021e-05, 0.700084, 0.445779
 648, 236.001, 0.986277, 2.2757e-05, 0.910281, 0.447014
 663, 241.001, 0.985887, 2.94356e-05, 1.17742, 0.448579
 678, 246.001, 0.985385, 3.78803e-05, 1.51521, 0.450554
 693, 251.001, 0.98474, 4.85047e-05, 1.94019, 0.453033
 708, 256.001, 0.983916, 6.1805e-05, 2.4722, 0.456128
 723, 261.001, 0.982869, 7.8373e-05, 3.13492, 0.459975
 738, 266.001, 0.981545, 9.89095e-05, 3.95638, 0.46473
 753, 271.001, 0.979878, 0.000124239, 4.96954, 0.47058
 768, 276.001, 0.977789, 0.00015532, 6.21282, 0.477738
 783, 281.001, 0.975184, 0.000193264, 7.73058, 0.48645
 798, 286.001, 0.97195, 0.000239338, 9.57351, 0.496997
 813, 291.001, 0.967955, 0.000294969, 11.7988, 0.50969
 828, 296.001, 0.963045, 0.000361745, 14.4698, 0.524872
 843, 301.001, 0.957038, 0.00044139, 17.6556, 0.542911
 858, 306.001, 0.949729, 0.000535735, 21.4294, 0.56419
 873, 311.001, 0.940882, 0.000646658, 25.8663, 0.58909
 888, 316.001, 0.930236, 0.000775988, 31.0395, 0.617968
 903, 321.001, 0.917501, 0.000925376, 37.015, 0.651123
 918, 326.001, 0.902366, 0.00109611, 43.8443, 0.688746
 933, 331.001, 0.884505, 0.00128886, 51.5544, 0.730863
 948, 336.001, 0.863589, 0.0015034, 60.1358, 0.77726
 963, 341.001, 0.8393, 0.00173819, 69.5275, 0.82739
 978, 346.001, 0.811355, 0.00199, 79.6001, 0.880278
 993, 351.001, 0.779538, 0.00225346, 90.1382, 0.934416
 1008, 356.001, 0.74373, 0.00252062, 100.825, 0.987676
 1023, 361.001, 0.703952, 0.00278074, 111.23, 1.03726
 1038, 366.001, 0.660408, 0.0030202, 120.808, 1.0797
 1053, 371.001, 0.613527, 0.00322287, 128.915, 1.11098
 1068, 376.001, 0.563993, 0.00337105, 134.842, 1.12679
 1083, 381.001, 0.512757, 0.00344693, 137.877, 1.12292
 1098, 386.001, 0.461025, 0.0034349, 137.396, 1.09585
 1113, 391.001, 0.410205, 0.00332427, 132.971, 1.04342
 1128, 396.001, 0.361808, 0.00311215, 124.486, 0.965588
 1143, 401.001, 0.317315, 0.00280583, 112.233, 0.86493
 1158, 406.001, 0.278016, 0.00242382, 96.9527, 0.746882
 1173, 411.001, 0.244841, 0.00199482, 79.7926, 0.619372
 1188, 416.001, 0.218235, 0.00155412, 62.165, 0.491836
 1203, 421.001, 0.198098, 0.00113796, 45.5183, 0.373698
 1218, 426.002, 0.183823, 0.000776831, 31.0732, 0.272658
 1233, 431.002, 0.174423, 0.000489981, 19.5992, 0.193296
 1248, 436.002, 0.168726, 0.000282699, 11.308, 0.136454
 1263, 441.002, 0.165581, 0.00014754, 5.90158, 0.0996538
 1278, 446.002, 0.164018, 6.87915e-05, 2.75166, 0.0783382
 1293, 451.002, 0.163328, 2.82629e-05, 1.13052, 0.0674209
 1308, 456.002, 0.16306, 1.00768e-05, 0.403073, 0.0625419
 1323, 461.002, 0.16297, 3.06562e-06, 0.122625, 0.0606672
 1338, 466.002, 0.162945, 7.81094e-07, 0.0312438, 0.0600582
 1353, 471.002, 0.162939, 1.63286e-07, 0.00653144, 0.0598939
 1368, 476.002, 0.162938, 2.73795e-08, 0.00109518, 0.0598578
 1383, 481.002, 0.162938, 3.59192e-09, 0.000143677, 0.0598516
 1398, 486.002, 0.162938, 3.58751e-10, 1.435e-05, 0.0598507
 1413, 491.002, 0.162938, 2.64742e-11, 1.05897e-06, 0.0598506
 1428, 496.002, 0.162938, 1.39696e-12, 5.58785e-08, 0.0598506
 1443, 501.002, 0.162938, 5.08536e-14, 2.03414e-09, 0.0598506
 1458, 506.002, 0.162938, 1.22814e-15, 4.91254e-11, 0.0598506
 1473, 511.002, 0.162938, 1.88554e-17, 7.54217e-13, 0.0598506
 1488, 516.002, 0.162938, 1.75679e-19, 7.02715e-15, 0.0598507
 1503, 521.002, 0.162938, 9.44388e-22, 3.77755e-17, 0.0598506
 1518, 526.002, 0.162938, 2.7726e-24, 1.10904e-19, 0.0598506
 1533, 531.002, 0.162938, 4.18842e-27, 1.67537e-22, 0.0598506
 1548, 536.002, 0.162938, 3.05201e-30, 1.2208e-25, 0.0598506
 1563, 541.002, 0.162938, 1.00026e-33, 4.00103e-29, 0.0598506
 1578, 546.002, 0.162938, 1.36696e-37, 5.46786e-33, 0.0598505
 1593, 551.002, 0.162938, 0.0000000E+000, 2.87117e-37, 0.0598506
 1608, 556.002, 0.162938, 0.0000000E+000, 0.0000000E+000, 0.0598506
 1623, 561.002, 0.162938, 0.0000000E+000, 0.0000000E+000, 0.0598505
 1638, 566.002, 0.162938, 0.0000000E+000, 0.0000000E+000, 0.0598506
 1653, 571.002, 0.162938, 0.0000000E+000, 0.0000000E+000, 0.0598506
 1668, 576.002, 0.162938, 0.0000000E+000, 0.0000000E+000, 0.0598506
 1683, 581.002, 0.162938, 0.0000000E+000, 0.0000000E+000, 0.0598506
 1698, 586.002, 0.162938, 0.0000000E+000, 0.0000000E+000, 0.0598505
 1713, 591.002, 0.162938, 0.0000000E+000, 0.0000000E+000, 0.0598506
 1728, 596.002, 0.162938, 0.0000000E+000, 0.0000000E+000, 0.0598506
 1743, 601.002, 0.162938, 0.0000000E+000, 0.0000000E+000, 0.0598505
 1758, 606.002, 0.162938, 0.0000000E+000, 0.0000000E+000, 0.0598506
 1773, 611.002, 0.162938, 0.0000000E+000, 0.0000000E+000, 0.0598505
 1788, 616.002, 0.162938, 0.0000000E+000, 0.0000000E+000, 0.0598506
 1803, 621.002, 0.162938, 0.0000000E+000, 0.0000000E+000, 0.0598506
 1818, 626.002, 0.162938, 0.0000000E+000, 0.0000000E+000, 0.0598505
 1833, 631.002, 0.162938, 0.0000000E+000, 0.0000000E+000, 0.0598506
 1848, 636.002, 0.162938, 0.0000000E+000, 0.0000000E+000, 0.0598506
 1863, 641.002, 0.162938, 0.0000000E+000, 0.0000000E+000, 0.0598506
 1878, 646.002, 0.162938, 0.0000000E+000, 0.0000000E+000, 0.0598506
 1893, 651.002, 0.162938, 0.0000000E+000, 0.0000000E+000, 0.0598505
 1908, 656.002, 0.162938, 0.0000000E+000, 0.0000000E+000, 0.0598505
 1923, 661.002, 0.162938, 0.0000000E+000, 0.0000000E+000, 0.0598507
 1938, 666.002, 0.162938, 0.0000000E+000, 0.0000000E+000, 0.0598506
 1953, 671.002, 0.162938, 0.0000000E+000, 0.0000000E+000, 0.0598505
 1968, 676.002, 0.162938, 0.0000000E+000, 0.0000000E+000, 0.0598506
 1983, 681.002, 0.162938, 0.0000000E+000, 0.0000000E+000, 0.0598506
 1998, 686.002, 0.162938, 0.0000000E+000, 0.0000000E+000, 0.0598506
 2013, 691.002, 0.162938, 0.0000000E+000, 0.0000000E+000, 0.0598506
 2028, 696.002, 0.162938, 0.0000000E+000, 0.0000000E+000, 0.0598505
 2043, 701.002, 0.162938, 0.0000000E+000, 0.0000000E+000, 0.0598506
 2058, 706.002, 0.162938, 0.0000000E+000, 0.0000000E+000, 0.0598506
 2073, 711.002, 0.162938, 0.0000000E+000, 0.0000000E+000, 0.0598505
 2088, 716.002, 0.162938, 0.0000000E+000, 0.0000000E+000, 0.0598506
 2103, 721.002, 0.162938, 0.0000000E+000, 0.0000000E+000, 0.0598506
 2118, 726.002, 0.162938, 0.0000000E+000, 0.0000000E+000, 0.0598506
 2133, 731.002, 0.162938, 0.0000000E+000, 0.0000000E+000, 0.0598507
 2148, 736.002, 0.162938, 0.0000000E+000, 0.0000000E+000, 0.0598505
 2163, 741.002, 0.162938, 0.0000000E+000, 0.0000000E+000, 0.0598506
 2178, 746.002, 0.162938, 0.0000000E+000, 0.0000000E+000, 0.0598505
 2193, 751.002, 0.162938, 0.0000000E+000, 0.0000000E+000, 0.0598505
 2208, 756.002, 0.162938, 0.0000000E+000, 0.0000000E+000, 0.0598505
 2223, 761.002, 0.162938, 0.0000000E+000, 0.0000000E+000, 0.0598505
 2238, 766.002, 0.162938, 0.0000000E+000, 0.0000000E+000, 0.0598506
 2253, 771.002, 0.162938, 0.0000000E+000, 0.0000000E+000, 0.0598507
 2268, 776.002, 0.162938, 0.0000000E+000, 0.0000000E+000, 0.0598505
 2283, 781.002, 0.162938, 0.0000000E+000, 0.0000000E+000, 0.0598505
 2298, 786.002, 0.162938, 0.0000000E+000, 0.0000000E+000, 0.0598505
 2313, 791.002, 0.162938, 0.0000000E+000, 0.0000000E+000, 0.0598505
 2328, 796.002, 0.162938, 0.0000000E+000, 0.0000000E+000, 0.0598504
 2340, 800.002, 0.162938, 0.0000000E+000, 0.0000000E+000, 0.0598506