File: examples/Birch_TGA_Example/Best/birch_tga_1step_5_tga.csv
s,C,g/g,1/s,W/g,W/g
Time,Temp,Mass,MLR,MCC,DSC
 12, 21.0004, 0.965, 8.71755e-14, 3.48702e-09, 0.10789
 72, 26.0004, 0.965, 1.87705e-13, 7.50818e-09, 0.10789
 132, 31.0004, 0.965, 3.94098e-13, 1.57639e-08, 0.10789
 192, 36.0004, 0.965, 8.07817e-13, 3.23127e-08, 0.10789
 252, 41.0004, 0.965, 1.61845e-12, 6.47381e-08, 0.10789
 312, 46.0004, 0.965, 3.17271e-12, 1.26909e-07, 0.10789
 372, 51.0004, 0.965, 6.09177e-12, 2.43671e-07, 0.10789
 432, 56.0004, 0.965, 1.1467e-11, 4.58679e-07, 0.10789
 492, 61.0004, 0.965, 2.11803e-11, 8.47213e-07, 0.10789
 552, 66.0004, 0.965, 3.84202e-11, 1.53681e-06, 0.10789
 612, 71.0004, 0.965, 6.84969e-11, 2.73988e-06, 0.10789
 672, 76.0004, 0.965, 1.20113e-10, 4.80453e-06, 0.10789
 732, 81.0004, 0.965, 2.07311e-10, 8.29245e-06, 0.10789
 792, 86.0004, 0.965, 3.52416e-10, 1.40966e-05, 0.10789
 852, 91.0004, 0.965, 5.90418e-10, 2.36167e-05, 0.107891
 912, 96.0004, 0.965, 9.75423e-10, 3.90169e-05, 0.107891
 972, 101, 0.965, 1.59001e-09, 6.36003e-05, 0.107891
 1032, 106, 0.965, 2.55863e-09, 0.000102345, 0.107891
 1092, 111, 0.965, 4.06667e-09, 0.000162667, 0.107891
 1152, 116, 0.964999, 6.38703e-09, 0.000255481, 0.107892
 1212, 121, 0.964999, 9.91708e-09, 0.000396683, 0.107893
 1272, 126, 0.964998, 1.52294e-08, 0.000609175, 0.107894
 1332, 131, 0.964997, 2.31403e-08, 0.000925614, 0.107896
 1392, 136, 0.964995, 3.4803e-08, 0.00139212, 0.107899
 1452, 141, 0.964993, 5.18303e-08, 0.00207321, 0.107903
 1512, 146, 0.964989, 7.6458e-08, 0.00305832, 0.107909
 1572, 151, 0.964983, 1.11759e-07, 0.00447034, 0.107917
 1632, 156, 0.964975, 1.61918e-07, 0.00647673, 0.107929
 1692, 161, 0.964963, 2.32595e-07, 0.00930379, 0.107946
 1752, 166, 0.964947, 3.31375e-07, 0.013255, 0.107969
 1812, 171, 0.964923, 4.68354e-07, 0.0187341, 0.108002
 1872, 176, 0.964889, 6.56867e-07, 0.0262747, 0.108046
 1932, 181, 0.964843, 9.14406e-07, 0.0365763, 0.108107
 1992, 186, 0.964778, 1.26375e-06, 0.0505501, 0.108189
 2052, 191, 0.964688, 1.73438e-06, 0.0693751, 0.1083
 2112, 196, 0.964566, 2.36415e-06, 0.0945662, 0.108448
 2172, 201, 0.964401, 3.20145e-06, 0.128058, 0.108643
 2232, 206, 0.964177, 4.30761e-06, 0.172305, 0.108902
 2292, 211, 0.963877, 5.75999e-06, 0.2304, 0.10924
 2352, 216, 0.963477, 7.65545e-06, 0.306218, 0.109681
 2412, 221, 0.962947, 1.01145e-05, 0.404582, 0.110251
 2472, 226, 0.962249, 1.32863e-05, 0.531451, 0.110985
 2532, 231, 0.961335, 1.73535e-05, 0.69414, 0.111924
 2592, 236, 0.960144, 2.25391e-05, 0.901564, 0.113118
 2652, 241, 0.958602, 2.91123e-05, 1.16449, 0.114628
 2712, 246, 0.956616, 3.73956e-05, 1.49582, 0.116526
 2772, 251, 0.954073, 4.77714e-05, 1.91086, 0.118897
 2832, 256, 0.950833, 6.06878e-05, 2.42751, 0.12184
 2892, 261, 0.946729, 7.66622e-05, 3.06649, 0.125469
 2952, 266, 0.94156, 9.62823e-05, 3.85129, 0.129911
 3012, 271, 0.935089, 0.000120201, 4.80804, 0.135306
 3072, 276, 0.927036, 0.000149123, 5.96491, 0.141804
 3132, 281, 0.917079, 0.000183778, 7.35113, 0.149555
 3192, 286, 0.904853, 0.000224882, 8.9953, 0.158699
 3252, 291, 0.889951, 0.000273068, 10.9227, 0.169354
 3312, 296, 0.871933, 0.000328794, 13.1518, 0.181585
 3372, 301, 0.850341, 0.000392216, 15.6886, 0.19538
 3432, 306, 0.824719, 0.000463026, 18.521, 0.210607
 3492, 311, 0.794648, 0.000540252, 21.6101, 0.226968
 3552, 316, 0.759796, 0.000622047, 24.8819, 0.243951
 3612, 321, 0.719968, 0.000705472, 28.2189, 0.26078
 3672, 326, 0.675188, 0.00078635, 31.454, 0.276383
 3732, 331, 0.625765, 0.000859233, 34.3693, 0.289398
 3792, 336, 0.572369, 0.000917598, 36.7039, 0.298229
 3852, 341, 0.516085, 0.000954349, 38.174, 0.301177
 3912, 346, 0.458416, 0.000962699, 38.508, 0.296674
 3972, 351, 0.401236, 0.000937417, 37.4967, 0.283594
 4032, 356, 0.346647, 0.000876275, 35.051, 0.261605
 4092, 361, 0.296762, 0.000781367, 31.2547, 0.231487
 4152, 366, 0.253421, 0.000659788, 26.3915, 0.195273
 4212, 371, 0.217892, 0.000523181, 20.9272, 0.156098
 4272, 376, 0.190654, 0.000385867, 15.4347, 0.117694
 4332, 381, 0.171321, 0.00026183, 10.4732, 0.0836073
 4392, 386, 0.158759, 0.000161434, 6.45737, 0.0563721
 4452, 391, 0.151383, 8.91743e-05, 3.56697, 0.0369607
 4512, 396, 0.147525, 4.34316e-05, 1.73726, 0.0247662
 4572, 401, 0.145758, 1.83167e-05, 0.732667, 0.0181111
 4632, 406, 0.145061, 6.55403e-06, 0.262161, 0.0150093
 4692, 411, 0.14483, 1.94458e-06, 0.0777834, 0.0137989
 4752, 416, 0.144767, 4.66237e-07, 0.0186495, 0.0134118
 4812, 421, 0.144753, 8.77601e-08, 0.0035104, 0.0133129
 4872, 426, 0.14475, 1.2556e-08, 0.00050224, 0.0132934
 4932, 431, 0.14475, 1.31699e-09, 5.26794e-05, 0.0132904
 4992, 436, 0.14475, 9.72728e-11, 3.89091e-06, 0.0132901
 5052, 441, 0.14475, 4.8374e-12, 1.93496e-07, 0.0132901
 5112, 446, 0.14475, 1.54102e-13, 6.16406e-09, 0.0132901
 5172, 451, 0.14475, 2.97562e-15, 1.19025e-10, 0.0132901
 5232, 456, 0.14475, 3.27601e-17, 1.3104e-12, 0.01329
 5292, 461, 0.14475, 1.92186e-19, 7.68744e-15, 0.01329
 5352, 466, 0.14475, 5.57522e-22, 2.23009e-17, 0.01329
 5412, 471, 0.14475, 7.36552e-25, 2.94621e-20, 0.01329
 5472, 476, 0.14475, 4.04744e-28, 1.61897e-23, 0.01329
 5532, 481, 0.14475, 8.37389e-32, 3.34955e-27, 0.0132899
 5592, 486, 0.14475, 5.84733e-36, 2.33893e-31, 0.01329
 5652, 491, 0.14475, 0.0000000E+000, 4.88975e-36, 0.01329
 5712, 496, 0.14475, 0.0000000E+000, 0.0000000E+000, 0.0132901
 5772, 501, 0.14475, 0.0000000E+000, 0.0000000E+000, 0.01329
 5832, 506, 0.14475, 0.0000000E+000, 0.0000000E+000, 0.0132901
 5892, 511, 0.14475, 0.0000000E+000, 0.0000000E+000, 0.01329
 5952, 516, 0.14475, 0.0000000E+000, 0.0000000E+000, 0.01329
 6012, 521, 0.14475, 0.0000000E+000, 0.0000000E+000, 0.0132901
 6072, 526, 0.14475, 0.0000000E+000, 0.0000000E+000, 0.01329
 6132, 531, 0.14475, 0.0000000E+000, 0.0000000E+000, 0.0132901
 6192, 536, 0.14475, 0.0000000E+000, 0.0000000E+000, 0.0132901
 6252, 541, 0.14475, 0.0000000E+000, 0.0000000E+000, 0.01329
 6312, 546, 0.14475, 0.0000000E+000, 0.0000000E+000, 0.0132901
 6372, 551, 0.14475, 0.0000000E+000, 0.0000000E+000, 0.0132901
 6432, 556, 0.14475, 0.0000000E+000, 0.0000000E+000, 0.01329
 6492, 561, 0.14475, 0.0000000E+000, 0.0000000E+000, 0.0132902
 6552, 566, 0.14475, 0.0000000E+000, 0.0000000E+000, 0.01329
 6612, 571, 0.14475, 0.0000000E+000, 0.0000000E+000, 0.01329
 6672, 576, 0.14475, 0.0000000E+000, 0.0000000E+000, 0.01329
 6732, 581, 0.14475, 0.0000000E+000, 0.0000000E+000, 0.0132901
 6792, 586, 0.14475, 0.0000000E+000, 0.0000000E+000, 0.0132901
 6852, 591, 0.14475, 0.0000000E+000, 0.0000000E+000, 0.0132901
 6912, 596, 0.14475, 0.0000000E+000, 0.0000000E+000, 0.01329
 6972, 601, 0.14475, 0.0000000E+000, 0.0000000E+000, 0.01329
 7032, 606, 0.14475, 0.0000000E+000, 0.0000000E+000, 0.0132901
 7092, 611, 0.14475, 0.0000000E+000, 0.0000000E+000, 0.01329
 7152, 616, 0.14475, 0.0000000E+000, 0.0000000E+000, 0.01329
 7212, 621, 0.14475, 0.0000000E+000, 0.0000000E+000, 0.01329
 7272, 626, 0.14475, 0.0000000E+000, 0.0000000E+000, 0.01329
 7332, 631, 0.14475, 0.0000000E+000, 0.0000000E+000, 0.0132901
 7392, 636, 0.14475, 0.0000000E+000, 0.0000000E+000, 0.01329
 7452, 641, 0.14475, 0.0000000E+000, 0.0000000E+000, 0.01329
 7512, 646, 0.14475, 0.0000000E+000, 0.0000000E+000, 0.0132901
 7572, 651, 0.14475, 0.0000000E+000, 0.0000000E+000, 0.0132901
 7632, 656, 0.14475, 0.0000000E+000, 0.0000000E+000, 0.01329
 7692, 661, 0.14475, 0.0000000E+000, 0.0000000E+000, 0.01329
 7752, 666, 0.14475, 0.0000000E+000, 0.0000000E+000, 0.01329
 7812, 671, 0.14475, 0.0000000E+000, 0.0000000E+000, 0.0132901
 7872, 676, 0.14475, 0.0000000E+000, 0.0000000E+000, 0.0132901
 7932, 681, 0.14475, 0.0000000E+000, 0.0000000E+000, 0.0132899
 7992, 686, 0.14475, 0.0000000E+000, 0.0000000E+000, 0.0132899
 8052, 691, 0.14475, 0.0000000E+000, 0.0000000E+000, 0.01329
 8112, 696, 0.14475, 0.0000000E+000, 0.0000000E+000, 0.0132901
 8172, 701, 0.14475, 0.0000000E+000, 0.0000000E+000, 0.01329
 8232, 706, 0.14475, 0.0000000E+000, 0.0000000E+000, 0.0132901
 8292, 711, 0.14475, 0.0000000E+000, 0.0000000E+000, 0.0132901
 8352, 716, 0.14475, 0.0000000E+000, 0.0000000E+000, 0.0132901
 8412, 721, 0.14475, 0.0000000E+000, 0.0000000E+000, 0.0132899
 8472, 726, 0.14475, 0.0000000E+000, 0.0000000E+000, 0.01329
 8532, 731, 0.14475, 0.0000000E+000, 0.0000000E+000, 0.01329
 8592, 736, 0.14475, 0.0000000E+000, 0.0000000E+000, 0.0132901
 8652, 741, 0.14475, 0.0000000E+000, 0.0000000E+000, 0.01329
 8712, 746, 0.14475, 0.0000000E+000, 0.0000000E+000, 0.0132901
 8772, 751, 0.14475, 0.0000000E+000, 0.0000000E+000, 0.01329
 8832, 756, 0.14475, 0.0000000E+000, 0.0000000E+000, 0.01329
 8892, 761, 0.14475, 0.0000000E+000, 0.0000000E+000, 0.0132899
 8952, 766, 0.14475, 0.0000000E+000, 0.0000000E+000, 0.01329
 9012, 771, 0.14475, 0.0000000E+000, 0.0000000E+000, 0.01329
 9072, 776, 0.14475, 0.0000000E+000, 0.0000000E+000, 0.0132902
 9132, 781, 0.14475, 0.0000000E+000, 0.0000000E+000, 0.01329
 9192, 786, 0.14475, 0.0000000E+000, 0.0000000E+000, 0.01329
 9252, 791, 0.14475, 0.0000000E+000, 0.0000000E+000, 0.01329
 9312, 796, 0.14475, 0.0000000E+000, 0.0000000E+000, 0.0132902
 9360, 800, 0.14475, 0.0000000E+000, 0.0000000E+000, 0.01329