File: examples/Birch_TGA_Example/Work/Cone_zba3hngy/birch_tga_1step_5_tga.csv
s,C,g/g,1/s,W/g,W/g
Time,Temp,Mass,MLR,MCC,DSC
 12, 21.0003, 0.999993, 6.11641e-07, 0.0000000E+000, 0.121505
 72, 26.0003, 0.99994, 1.2096e-06, 0.0000000E+000, 0.12284
 132, 31.0003, 0.999838, 2.33562e-06, 0.0000000E+000, 0.125352
 192, 36.0003, 0.999641, 4.40258e-06, 0.0000000E+000, 0.12996
 252, 41.0003, 0.999277, 8.09149e-06, 0.0000000E+000, 0.13818
 312, 46.0003, 0.998617, 1.4457e-05, 0.0000000E+000, 0.152354
 372, 51.0003, 0.997459, 2.49637e-05, 3.14171e-38, 0.175724
 432, 56.0003, 0.995506, 4.12227e-05, 1.89903e-37, 0.211832
 492, 61.0003, 0.992381, 6.39249e-05, 1.08771e-36, 0.262109
 552, 66.0002, 0.987756, 9.03173e-05, 5.91761e-36, 0.320212
 612, 71.0002, 0.981658, 0.000110681, 3.06481e-35, 0.364157
 672, 76.0002, 0.974924, 0.000108763, 1.51429e-34, 0.35746
 732, 81.0003, 0.96925, 7.57684e-05, 7.152e-34, 0.280815
 792, 86.0003, 0.966081, 3.09276e-05, 3.23501e-33, 0.178244
 852, 91.0004, 0.965122, 5.53148e-06, 1.40385e-32, 0.120447
 912, 96.0004, 0.965004, 2.79825e-07, 5.85457e-32, 0.108525
 972, 101, 0.965, 2.08746e-09, 2.35014e-31, 0.107895
 1032, 106, 0.965, 8.80702e-13, 9.09433e-31, 0.10789
 1092, 111, 0.965, 5.20756e-18, 3.39743e-30, 0.10789
 1152, 116, 0.965, 5.77881e-26, 1.22694e-29, 0.10789
 1212, 121, 0.965, 1.07229e-33, 4.28889e-29, 0.10789
 1272, 126, 0.965, 3.63237e-33, 1.45295e-28, 0.10789
 1332, 131, 0.965, 1.19394e-32, 4.77578e-28, 0.10789
 1392, 136, 0.965, 3.81195e-32, 1.52478e-27, 0.10789
 1452, 141, 0.965, 1.18341e-31, 4.73365e-27, 0.10789
 1512, 146, 0.965, 3.57592e-31, 1.43037e-26, 0.10789
 1572, 151, 0.965, 1.05273e-30, 4.21092e-26, 0.10789
 1632, 156, 0.965, 3.02217e-30, 1.20887e-25, 0.10789
 1692, 161, 0.965, 8.46783e-30, 3.38713e-25, 0.10789
 1752, 166, 0.965, 2.31759e-29, 9.27034e-25, 0.10789
 1812, 171, 0.965, 6.2009e-29, 2.48036e-24, 0.10789
 1872, 176, 0.965, 1.62314e-28, 6.49258e-24, 0.10789
 1932, 181, 0.965, 4.15966e-28, 1.66386e-23, 0.10789
 1992, 186, 0.965, 1.04438e-27, 4.17751e-23, 0.10789
 2052, 191, 0.965, 2.57065e-27, 1.02826e-22, 0.10789
 2112, 196, 0.965, 6.20712e-27, 2.48285e-22, 0.10789
 2172, 201, 0.965, 1.47117e-26, 5.88469e-22, 0.10789
 2232, 206, 0.965, 3.42464e-26, 1.36986e-21, 0.10789
 2292, 211, 0.965, 7.83407e-26, 3.13363e-21, 0.10789
 2352, 216, 0.965, 1.76203e-25, 7.04811e-21, 0.10789
 2412, 221, 0.965, 3.89865e-25, 1.55946e-20, 0.10789
 2472, 226, 0.965, 8.48997e-25, 3.39599e-20, 0.10789
 2532, 231, 0.965, 1.82051e-24, 7.28205e-20, 0.10789
 2592, 236, 0.965, 3.84569e-24, 1.53828e-19, 0.10789
 2652, 241, 0.965, 8.00642e-24, 3.20257e-19, 0.10789
 2712, 246, 0.965, 1.64349e-23, 6.57397e-19, 0.10789
 2772, 251, 0.965, 3.32766e-23, 1.33106e-18, 0.10789
 2832, 256, 0.965, 6.64844e-23, 2.65938e-18, 0.10789
 2892, 261, 0.965, 1.31121e-22, 5.24485e-18, 0.10789
 2952, 266, 0.965, 2.55362e-22, 1.02145e-17, 0.10789
 3012, 271, 0.965, 4.91269e-22, 1.96508e-17, 0.10789
 3072, 276, 0.965, 9.33916e-22, 3.73567e-17, 0.10789
 3132, 281, 0.965, 1.75494e-21, 7.01975e-17, 0.10789
 3192, 286, 0.965, 3.26074e-21, 1.3043e-16, 0.10789
 3252, 291, 0.965, 5.99241e-21, 2.39696e-16, 0.10789
 3312, 296, 0.965, 1.08954e-20, 4.35816e-16, 0.10789
 3372, 301, 0.965, 1.96048e-20, 7.84193e-16, 0.10789
 3432, 306, 0.965, 3.49202e-20, 1.39681e-15, 0.10789
 3492, 311, 0.965, 6.15885e-20, 2.46354e-15, 0.10789
 3552, 316, 0.965, 1.07582e-19, 4.30328e-15, 0.10789
 3612, 321, 0.965, 1.86167e-19, 7.44667e-15, 0.10789
 3672, 326, 0.965, 3.1922e-19, 1.27688e-14, 0.10789
 3732, 331, 0.965, 5.42502e-19, 2.17001e-14, 0.10789
 3792, 336, 0.965, 9.1397e-19, 3.65588e-14, 0.10789
 3852, 341, 0.965, 1.52677e-18, 6.10709e-14, 0.10789
 3912, 346, 0.965, 2.5294e-18, 1.01176e-13, 0.10789
 3972, 351, 0.965, 4.15669e-18, 1.66267e-13, 0.10789
 4032, 356, 0.965, 6.77717e-18, 2.71087e-13, 0.10789
 4092, 361, 0.965, 1.09648e-17, 4.38593e-13, 0.10789
 4152, 366, 0.965, 1.7607e-17, 7.04281e-13, 0.10789
 4212, 371, 0.965, 2.80658e-17, 1.12263e-12, 0.10789
 4272, 376, 0.965, 4.4417e-17, 1.77668e-12, 0.10789
 4332, 381, 0.965, 6.98028e-17, 2.79211e-12, 0.10789
 4392, 386, 0.965, 1.08948e-16, 4.35791e-12, 0.10789
 4452, 391, 0.965, 1.68909e-16, 6.75636e-12, 0.10789
 4512, 396, 0.965, 2.6016e-16, 1.04064e-11, 0.10789
 4572, 401, 0.965, 3.9815e-16, 1.5926e-11, 0.10789
 4632, 406, 0.965, 6.05525e-16, 2.4221e-11, 0.10789
 4692, 411, 0.965, 9.15282e-16, 3.66113e-11, 0.10789
 4752, 416, 0.965, 1.37523e-15, 5.50091e-11, 0.10789
 4812, 421, 0.965, 2.05422e-15, 8.21688e-11, 0.10789
 4872, 426, 0.965, 3.05089e-15, 1.22036e-10, 0.10789
 4932, 431, 0.965, 4.50575e-15, 1.8023e-10, 0.10789
 4992, 436, 0.965, 6.61789e-15, 2.64716e-10, 0.10789
 5052, 441, 0.965, 9.66794e-15, 3.86718e-10, 0.10789
 5112, 446, 0.965, 1.40495e-14, 5.61978e-10, 0.10789
 5172, 451, 0.965, 2.03116e-14, 8.12462e-10, 0.10789
 5232, 456, 0.965, 2.92167e-14, 1.16867e-09, 0.10789
 5292, 461, 0.965, 4.18186e-14, 1.67274e-09, 0.10789
 5352, 466, 0.965, 5.95663e-14, 2.38265e-09, 0.10789
 5412, 471, 0.965, 8.44436e-14, 3.37774e-09, 0.10789
 5472, 476, 0.965, 1.19154e-13, 4.76617e-09, 0.10789
 5532, 481, 0.965, 1.67367e-13, 6.69468e-09, 0.10789
 5592, 486, 0.965, 2.34038e-13, 9.36152e-09, 0.10789
 5652, 491, 0.965, 3.25834e-13, 1.30334e-08, 0.10789
 5712, 496, 0.965, 4.51689e-13, 1.80676e-08, 0.10789
 5772, 501, 0.965, 6.23519e-13, 2.49408e-08, 0.10789
 5832, 506, 0.965, 8.57162e-13, 3.42865e-08, 0.10789
 5892, 511, 0.965, 1.17358e-12, 4.69433e-08, 0.10789
 5952, 516, 0.965, 1.60042e-12, 6.40169e-08, 0.10789
 6012, 521, 0.965, 2.174e-12, 8.69601e-08, 0.10789
 6072, 526, 0.965, 2.94185e-12, 1.17674e-07, 0.10789
 6132, 531, 0.965, 3.96595e-12, 1.58638e-07, 0.10789
 6192, 536, 0.965, 5.32686e-12, 2.13074e-07, 0.10789
 6252, 541, 0.965, 7.12888e-12, 2.85155e-07, 0.10789
 6312, 546, 0.965, 9.50662e-12, 3.80265e-07, 0.10789
 6372, 551, 0.965, 1.26332e-11, 5.05329e-07, 0.10789
 6432, 556, 0.965, 1.67307e-11, 6.69227e-07, 0.10789
 6492, 561, 0.965, 2.20826e-11, 8.83304e-07, 0.10789
 6552, 566, 0.965, 2.90503e-11, 1.16201e-06, 0.10789
 6612, 571, 0.965, 3.80925e-11, 1.5237e-06, 0.10789
 6672, 576, 0.965, 4.979e-11, 1.9916e-06, 0.10789
 6732, 581, 0.965, 6.4876e-11, 2.59504e-06, 0.10789
 6792, 586, 0.965, 8.42728e-11, 3.37091e-06, 0.10789
 6852, 591, 0.965, 1.09138e-10, 4.36553e-06, 0.10789
 6912, 596, 0.965, 1.4092e-10, 5.63681e-06, 0.10789
 6972, 601, 0.965, 1.81427e-10, 7.25707e-06, 0.10789
 7032, 606, 0.965, 2.32906e-10, 9.31623e-06, 0.10789
 7092, 611, 0.965, 2.98148e-10, 1.19259e-05, 0.10789
 7152, 616, 0.965, 3.80609e-10, 1.52243e-05, 0.10789
 7212, 621, 0.965, 4.8455e-10, 1.9382e-05, 0.10789
 7272, 626, 0.965, 6.15223e-10, 2.46089e-05, 0.107891
 7332, 631, 0.965, 7.79075e-10, 3.1163e-05, 0.107891
 7392, 636, 0.965, 9.84008e-10, 3.93603e-05, 0.107891
 7452, 641, 0.965, 1.23968e-09, 4.9587e-05, 0.107891
 7512, 646, 0.965, 1.55785e-09, 6.23141e-05, 0.107891
 7572, 651, 0.965, 1.95286e-09, 7.81144e-05, 0.107891
 7632, 656, 0.964999, 2.44208e-09, 9.76831e-05, 0.107891
 7692, 661, 0.964999, 3.04655e-09, 0.000121862, 0.107891
 7752, 666, 0.964999, 3.7917e-09, 0.000151668, 0.107891
 7812, 671, 0.964999, 4.70819e-09, 0.000188328, 0.107891
 7872, 676, 0.964998, 5.83288e-09, 0.000233315, 0.107892
 7932, 681, 0.964998, 7.21003e-09, 0.000288401, 0.107892
 7992, 686, 0.964998, 8.89266e-09, 0.000355706, 0.107892
 8052, 691, 0.964997, 1.09441e-08, 0.000437765, 0.107893
 8112, 696, 0.964996, 1.344e-08, 0.000537601, 0.107893
 8172, 701, 0.964995, 1.64704e-08, 0.000658815, 0.107894
 8232, 706, 0.964994, 2.01421e-08, 0.000805684, 0.107895
 8292, 711, 0.964993, 2.4582e-08, 0.000983281, 0.107896
 8352, 716, 0.964991, 2.99403e-08, 0.00119761, 0.107897
 8412, 721, 0.964989, 3.63942e-08, 0.00145577, 0.107898
 8472, 726, 0.964987, 4.4153e-08, 0.00176612, 0.1079
 8532, 731, 0.964984, 5.34629e-08, 0.00213851, 0.107902
 8592, 736, 0.96498, 6.46131e-08, 0.00258452, 0.107905
 8652, 741, 0.964976, 7.79429e-08, 0.00311772, 0.107908
 8712, 746, 0.964971, 9.38498e-08, 0.00375399, 0.107911
 8772, 751, 0.964965, 1.12798e-07, 0.00451193, 0.107915
 8832, 756, 0.964957, 1.3533e-07, 0.0054132, 0.10792
 8892, 761, 0.964949, 1.62077e-07, 0.00648306, 0.107926
 8952, 766, 0.964938, 1.93772e-07, 0.00775089, 0.107933
 9012, 771, 0.964925, 2.3127e-07, 0.00925079, 0.107941
 9072, 776, 0.96491, 2.75558e-07, 0.0110223, 0.107951
 9132, 781, 0.964892, 3.27781e-07, 0.0131112, 0.107962
 9192, 786, 0.96487, 3.8926e-07, 0.0155704, 0.107975
 9252, 791, 0.964845, 4.61523e-07, 0.0184609, 0.107991
 9312, 796, 0.964815, 5.46326e-07, 0.021853, 0.108009
 9360, 800, 0.964787, 6.24547e-07, 0.0249819, 0.108026