File: examples/Birch_TGA_Example/Work/Cone_zba3hngy/birch_tga_1step_20_tga.csv
s,C,g/g,1/s,W/g,W/g
Time,Temp,Mass,MLR,MCC,DSC
 3, 21.0014, 0.999999, 2.18432e-07, 0.0000000E+000, 0.459601
 18, 26.0014, 0.999995, 4.32468e-07, 0.0000000E+000, 0.460078
 33, 31.0014, 0.999985, 8.36909e-07, 0.0000000E+000, 0.460981
 48, 36.0014, 0.999968, 1.58425e-06, 0.0000000E+000, 0.462648
 63, 41.0014, 0.999935, 2.9349e-06, 0.0000000E+000, 0.465658
 78, 46.0014, 0.999875, 5.32078e-06, 0.0000000E+000, 0.470974
 93, 51.0014, 0.999767, 9.43249e-06, 3.15659e-38, 0.480128
 108, 56.0014, 0.999578, 1.63183e-05, 1.90807e-37, 0.495447
 123, 61.0014, 0.999256, 2.74414e-05, 1.09291e-36, 0.520169
 138, 66.0014, 0.998725, 4.45431e-05, 5.94598e-36, 0.558128
 153, 71.0013, 0.997882, 6.89739e-05, 3.07954e-35, 0.612238
 168, 76.0013, 0.996621, 9.99575e-05, 1.52157e-34, 0.680587
 183, 81.0013, 0.994879, 0.000131523, 7.18629e-34, 0.749574
 198, 86.0012, 0.992741, 0.000149884, 3.25048e-33, 0.788117
 213, 91.0013, 0.990538, 0.00013763, 1.41058e-32, 0.757287
 228, 96.0013, 0.988788, 9.13137e-05, 5.88278e-32, 0.65002
 243, 101.001, 0.98784, 3.72118e-05, 2.36153e-31, 0.526279
 258, 106.001, 0.987544, 7.33278e-06, 9.13862e-31, 0.458275
 273, 111.001, 0.987502, 4.9318e-07, 3.41402e-30, 0.442749
 288, 116.001, 0.9875, 6.85133e-09, 1.23294e-29, 0.441646
 303, 121.001, 0.9875, 9.59621e-12, 4.30991e-29, 0.441631
 318, 126.001, 0.9875, 4.90975e-16, 1.46008e-28, 0.441631
 333, 131.001, 0.9875, 2.20505e-22, 4.79927e-28, 0.441631
 348, 136.001, 0.9875, 1.57307e-31, 1.53229e-27, 0.441631
 363, 141.001, 0.9875, 1.18925e-31, 4.75701e-27, 0.441631
 378, 146.001, 0.9875, 3.5936e-31, 1.43744e-26, 0.441631
 393, 151.001, 0.9875, 1.05794e-30, 4.23177e-26, 0.441631
 408, 156.001, 0.9875, 3.03716e-30, 1.21486e-25, 0.441631
 423, 161.001, 0.9875, 8.50987e-30, 3.40395e-25, 0.441631
 438, 166.001, 0.9875, 2.32911e-29, 9.31642e-25, 0.441631
 453, 171.001, 0.9875, 6.23176e-29, 2.4927e-24, 0.441631
 468, 176.001, 0.9875, 1.63123e-28, 6.52493e-24, 0.441631
 483, 181.001, 0.9875, 4.18041e-28, 1.67216e-23, 0.441631
 498, 186.001, 0.9875, 1.04959e-27, 4.19837e-23, 0.441631
 513, 191.001, 0.9875, 2.5835e-27, 1.0334e-22, 0.441631
 528, 196.001, 0.9875, 6.2382e-27, 2.49528e-22, 0.441631
 543, 201.001, 0.9875, 1.47854e-26, 5.91418e-22, 0.441631
 558, 206.001, 0.9875, 3.44182e-26, 1.37673e-21, 0.441631
 573, 211.001, 0.9875, 7.87341e-26, 3.14936e-21, 0.441631
 588, 216.001, 0.9875, 1.77088e-25, 7.08354e-21, 0.441631
 603, 221.001, 0.9875, 3.91826e-25, 1.56731e-20, 0.441631
 618, 226.001, 0.9875, 8.53272e-25, 3.41309e-20, 0.441631
 633, 231.001, 0.9875, 1.82969e-24, 7.31875e-20, 0.441631
 648, 236.001, 0.9875, 3.86509e-24, 1.54604e-19, 0.441631
 663, 241.001, 0.9875, 8.04684e-24, 3.21873e-19, 0.441631
 678, 246.001, 0.9875, 1.6518e-23, 6.60719e-19, 0.441631
 693, 251.001, 0.9875, 3.34448e-23, 1.33779e-18, 0.441631
 708, 256.001, 0.9875, 6.68208e-23, 2.67283e-18, 0.441631
 723, 261.001, 0.9875, 1.31785e-22, 5.27141e-18, 0.441631
 738, 266.001, 0.9875, 2.56656e-22, 1.02662e-17, 0.441631
 753, 271.001, 0.9875, 4.9376e-22, 1.97504e-17, 0.441631
 768, 276.001, 0.9875, 9.38655e-22, 3.75462e-17, 0.441631
 783, 281.001, 0.9875, 1.76385e-21, 7.0554e-17, 0.441631
 798, 286.001, 0.9875, 3.27731e-21, 1.31092e-16, 0.441631
 813, 291.001, 0.9875, 6.02287e-21, 2.40915e-16, 0.441631
 828, 296.001, 0.9875, 1.09508e-20, 4.38033e-16, 0.441631
 843, 301.001, 0.9875, 1.97046e-20, 7.88184e-16, 0.441631
 858, 306.001, 0.9875, 3.50981e-20, 1.40392e-15, 0.441631
 873, 311.001, 0.9875, 6.19023e-20, 2.47609e-15, 0.441631
 888, 316.001, 0.9875, 1.0813e-19, 4.32522e-15, 0.441631
 903, 321.001, 0.9875, 1.87116e-19, 7.48466e-15, 0.441631
 918, 326.001, 0.9875, 3.20849e-19, 1.2834e-14, 0.441631
 933, 331.001, 0.9875, 5.45272e-19, 2.18109e-14, 0.441631
 948, 336.001, 0.9875, 9.18639e-19, 3.67456e-14, 0.441631
 963, 341.001, 0.9875, 1.53457e-18, 6.1383e-14, 0.441631
 978, 346.001, 0.9875, 2.54233e-18, 1.01693e-13, 0.441631
 993, 351.001, 0.9875, 4.17795e-18, 1.67118e-13, 0.441631
 1008, 356.001, 0.9875, 6.81185e-18, 2.72474e-13, 0.441631
 1023, 361.001, 0.9875, 1.1021e-17, 4.40839e-13, 0.441631
 1038, 366.001, 0.9875, 1.76972e-17, 7.07889e-13, 0.441631
 1053, 371.001, 0.9875, 2.82096e-17, 1.12838e-12, 0.441631
 1068, 376.001, 0.9875, 4.46447e-17, 1.78579e-12, 0.441631
 1083, 381.001, 0.9875, 7.01608e-17, 2.80643e-12, 0.441631
 1098, 386.001, 0.9875, 1.09507e-16, 4.38027e-12, 0.441631
 1113, 391.001, 0.9875, 1.69776e-16, 6.79103e-12, 0.441631
 1128, 396.001, 0.9875, 2.61496e-16, 1.04598e-11, 0.441631
 1143, 401.001, 0.9875, 4.00195e-16, 1.60078e-11, 0.441631
 1158, 406.001, 0.9875, 6.08635e-16, 2.43454e-11, 0.441631
 1173, 411.001, 0.9875, 9.19986e-16, 3.67994e-11, 0.441631
 1188, 416.001, 0.9875, 1.3823e-15, 5.52919e-11, 0.441631
 1203, 421.001, 0.9875, 2.06478e-15, 8.25914e-11, 0.441631
 1218, 426.001, 0.9875, 3.06659e-15, 1.22663e-10, 0.441631
 1233, 431.001, 0.9875, 4.52894e-15, 1.81157e-10, 0.441631
 1248, 436.001, 0.9875, 6.65195e-15, 2.66078e-10, 0.441631
 1263, 441.001, 0.9875, 9.71772e-15, 3.88709e-10, 0.441631
 1278, 446.001, 0.9875, 1.41218e-14, 5.64873e-10, 0.441631
 1293, 451.001, 0.9875, 2.04162e-14, 8.16648e-10, 0.441631
 1308, 456.001, 0.9875, 2.93673e-14, 1.17469e-09, 0.441631
 1323, 461.001, 0.9875, 4.20342e-14, 1.68137e-09, 0.441631
 1338, 466.001, 0.9875, 5.98734e-14, 2.39494e-09, 0.441631
 1353, 471.001, 0.9875, 8.48791e-14, 3.39516e-09, 0.441631
 1368, 476.001, 0.9875, 1.19769e-13, 4.79076e-09, 0.441631
 1383, 481.001, 0.9875, 1.68231e-13, 6.72923e-09, 0.441631
 1398, 486.001, 0.9875, 2.35246e-13, 9.40984e-09, 0.441631
 1413, 491.001, 0.9875, 3.27517e-13, 1.31007e-08, 0.441631
 1428, 496.001, 0.9875, 4.54021e-13, 1.81609e-08, 0.441631
 1443, 501.001, 0.9875, 6.26739e-13, 2.50696e-08, 0.441631
 1458, 506.001, 0.9875, 8.6159e-13, 3.44636e-08, 0.441631
 1473, 511.001, 0.9875, 1.17965e-12, 4.71859e-08, 0.441631
 1488, 516.001, 0.9875, 1.6087e-12, 6.43478e-08, 0.441631
 1503, 521.001, 0.9875, 2.18524e-12, 8.74096e-08, 0.441631
 1518, 526.001, 0.9875, 2.95706e-12, 1.18282e-07, 0.441631
 1533, 531.001, 0.9875, 3.98646e-12, 1.59459e-07, 0.441631
 1548, 536.001, 0.9875, 5.35441e-12, 2.14177e-07, 0.441631
 1563, 541.001, 0.9875, 7.16576e-12, 2.8663e-07, 0.441631
 1578, 546.001, 0.9875, 9.55582e-12, 3.82233e-07, 0.441631
 1593, 551.001, 0.9875, 1.26986e-11, 5.07945e-07, 0.441631
 1608, 556.001, 0.9875, 1.68173e-11, 6.72692e-07, 0.441631
 1623, 561.001, 0.9875, 2.21969e-11, 8.87877e-07, 0.441631
 1638, 566.001, 0.9875, 2.92007e-11, 1.16803e-06, 0.441631
 1653, 571.001, 0.9875, 3.82898e-11, 1.53159e-06, 0.441631
 1668, 576.001, 0.9875, 5.0048e-11, 2.00192e-06, 0.441631
 1683, 581.001, 0.9875, 6.52121e-11, 2.60849e-06, 0.441631
 1698, 586.001, 0.9875, 8.47096e-11, 3.38838e-06, 0.441631
 1713, 591.001, 0.9875, 1.09704e-10, 4.38815e-06, 0.441631
 1728, 596.001, 0.9875, 1.41651e-10, 5.66604e-06, 0.441631
 1743, 601.001, 0.9875, 1.82367e-10, 7.29469e-06, 0.441631
 1758, 606.001, 0.9875, 2.34114e-10, 9.36455e-06, 0.441631
 1773, 611.001, 0.9875, 2.99695e-10, 1.19878e-05, 0.441631
 1788, 616.001, 0.9875, 3.82583e-10, 1.53033e-05, 0.441631
 1803, 621.001, 0.9875, 4.87064e-10, 1.94826e-05, 0.441631
 1818, 626.001, 0.9875, 6.18415e-10, 2.47366e-05, 0.441631
 1833, 631.001, 0.9875, 7.83119e-10, 3.13248e-05, 0.441631
 1848, 636.001, 0.9875, 9.89116e-10, 3.95646e-05, 0.441631
 1863, 641.001, 0.9875, 1.24611e-09, 4.98445e-05, 0.441631
 1878, 646.001, 0.9875, 1.56594e-09, 6.26377e-05, 0.441631
 1893, 651.001, 0.9875, 1.963e-09, 7.852e-05, 0.441631
 1908, 656.001, 0.9875, 2.45476e-09, 9.81904e-05, 0.441631
 1923, 661.001, 0.9875, 3.06238e-09, 0.000122495, 0.441632
 1938, 666.001, 0.9875, 3.81141e-09, 0.000152456, 0.441632
 1953, 671.001, 0.9875, 4.73266e-09, 0.000189306, 0.441632
 1968, 676.001, 0.9875, 5.8632e-09, 0.000234528, 0.441632
 1983, 681.001, 0.9875, 7.24752e-09, 0.000289901, 0.441633
 1998, 686.001, 0.987499, 8.9389e-09, 0.000357556, 0.441633
 2013, 691.001, 0.987499, 1.1001e-08, 0.000440042, 0.441633
 2028, 696.001, 0.987499, 1.35099e-08, 0.000540398, 0.441634
 2043, 701.001, 0.987499, 1.65561e-08, 0.000662243, 0.441635
 2058, 706.001, 0.987499, 2.02469e-08, 0.000809877, 0.441636
 2073, 711.001, 0.987498, 2.471e-08, 0.000988401, 0.441637
 2088, 716.001, 0.987498, 3.00962e-08, 0.00120385, 0.441638
 2103, 721.001, 0.987497, 3.65839e-08, 0.00146336, 0.441639
 2118, 726.001, 0.987497, 4.43832e-08, 0.00177533, 0.441641
 2133, 731.001, 0.987496, 5.37418e-08, 0.00214967, 0.441643
 2148, 736.001, 0.987495, 6.49504e-08, 0.00259802, 0.441646
 2163, 741.001, 0.987494, 7.83502e-08, 0.00313401, 0.441649
 2178, 746.001, 0.987493, 9.43407e-08, 0.00377363, 0.441652
 2193, 751.001, 0.987491, 1.13389e-07, 0.00453556, 0.441656
 2208, 756.001, 0.987489, 1.3604e-07, 0.00544159, 0.441661
 2223, 761.001, 0.987487, 1.62928e-07, 0.00651712, 0.441668
 2238, 766.001, 0.987484, 1.94792e-07, 0.00779169, 0.441675
 2253, 771.001, 0.987481, 2.3249e-07, 0.0092996, 0.441683
 2268, 776.001, 0.987477, 2.77016e-07, 0.0110806, 0.441693
 2283, 781.001, 0.987473, 3.2952e-07, 0.0131808, 0.441704
 2298, 786.001, 0.987467, 3.91334e-07, 0.0156534, 0.441718
 2313, 791.001, 0.987461, 4.63992e-07, 0.0185597, 0.441734
 2328, 796.001, 0.987453, 5.49265e-07, 0.0219706, 0.441753
 2340, 800.001, 0.987446, 6.27923e-07, 0.0251169, 0.44177