File: examples/Birch_TGA_Example/Work/Cone_zba3hngy/birch_tga_1step_2_tga.csv
s,C,g/g,1/s,W/g,W/g
Time,Temp,Mass,MLR,MCC,DSC
 30, 21.0001, 0.999987, 4.80453e-07, 0.0000000E+000, 0.0484218
 180, 26.0001, 0.999883, 9.4801e-07, 0.0000000E+000, 0.0494653
 330, 31.0001, 0.999682, 1.82243e-06, 0.0000000E+000, 0.0514158
 480, 36.0001, 0.999301, 3.40628e-06, 0.0000000E+000, 0.0549465
 630, 41.0001, 0.998602, 6.16185e-06, 0.0000000E+000, 0.0610839
 780, 46.0001, 0.997364, 1.06929e-05, 0.0000000E+000, 0.0711637
 930, 51.0001, 0.995278, 1.75185e-05, 3.07334e-38, 0.0863168
 1080, 56.0001, 0.992004, 2.63566e-05, 1.85771e-37, 0.105858
 1230, 61.0001, 0.987387, 3.47561e-05, 1.06405e-36, 0.124218
 1380, 66.0001, 0.981873, 3.72041e-05, 5.78889e-36, 0.128986
 1530, 71.0001, 0.976798, 2.85552e-05, 2.99817e-35, 0.108706
 1680, 76.0001, 0.973677, 1.29016e-05, 1.48136e-34, 0.0728489
 1830, 81.0001, 0.972641, 2.51929e-06, 6.99641e-34, 0.0492118
 1980, 86.0001, 0.972505, 1.31928e-07, 3.16457e-33, 0.0437909
 2130, 91.0001, 0.9725, 8.95175e-10, 1.37327e-32, 0.0434938
 2280, 96.0001, 0.9725, 2.63279e-13, 5.727e-32, 0.0434918
 2430, 101, 0.9725, 6.58164e-19, 2.29892e-31, 0.0434918
 2580, 106, 0.9725, 1.27292e-27, 8.89613e-31, 0.0434918
 2730, 111, 0.9725, 8.30846e-35, 3.32338e-30, 0.0434918
 2880, 116, 0.9725, 3.00048e-34, 1.20019e-29, 0.0434918
 3030, 121, 0.9725, 1.04885e-33, 4.19539e-29, 0.0434918
 3180, 126, 0.9725, 3.55318e-33, 1.42127e-28, 0.0434918
 3330, 131, 0.9725, 1.16791e-32, 4.67165e-28, 0.0434918
 3480, 136, 0.9725, 3.72883e-32, 1.49153e-27, 0.0434918
 3630, 141, 0.9725, 1.15761e-31, 4.63043e-27, 0.0434918
 3780, 146, 0.9725, 3.49794e-31, 1.39918e-26, 0.0434918
 3930, 151, 0.9725, 1.02977e-30, 4.11909e-26, 0.0434918
 4080, 156, 0.9725, 2.95626e-30, 1.1825e-25, 0.0434918
 4230, 161, 0.9725, 8.28314e-30, 3.31325e-25, 0.0434918
 4380, 166, 0.9725, 2.26703e-29, 9.06813e-25, 0.0434918
 4530, 171, 0.9725, 6.06563e-29, 2.42625e-24, 0.0434918
 4680, 176, 0.9725, 1.58773e-28, 6.35094e-24, 0.0434918
 4830, 181, 0.9725, 4.06891e-28, 1.62756e-23, 0.0434918
 4980, 186, 0.9725, 1.02159e-27, 4.08636e-23, 0.0434918
 5130, 191, 0.9725, 2.51456e-27, 1.00582e-22, 0.0434918
 5280, 196, 0.9725, 6.07169e-27, 2.42867e-22, 0.0434918
 5430, 201, 0.9725, 1.43907e-26, 5.75628e-22, 0.0434918
 5580, 206, 0.9725, 3.34991e-26, 1.33996e-21, 0.0434918
 5730, 211, 0.9725, 7.66311e-26, 3.06524e-21, 0.0434918
 5880, 216, 0.9725, 1.72357e-25, 6.8943e-21, 0.0434918
 6030, 221, 0.9725, 3.81356e-25, 1.52543e-20, 0.0434918
 6180, 226, 0.9725, 8.30467e-25, 3.32187e-20, 0.0434918
 6330, 231, 0.9725, 1.78078e-24, 7.12311e-20, 0.0434918
 6480, 236, 0.9725, 3.76175e-24, 1.5047e-19, 0.0434918
 6630, 241, 0.9725, 7.83166e-24, 3.13266e-19, 0.0434918
 6780, 246, 0.9725, 1.60762e-23, 6.43047e-19, 0.0434918
 6930, 251, 0.9725, 3.25502e-23, 1.30201e-18, 0.0434918
 7080, 256, 0.9725, 6.5033e-23, 2.60132e-18, 0.0434919
 7230, 261, 0.9725, 1.28259e-22, 5.13036e-18, 0.0434918
 7380, 266, 0.9725, 2.49787e-22, 9.99149e-18, 0.0434918
 7530, 271, 0.9725, 4.80544e-22, 1.92218e-17, 0.0434918
 7680, 276, 0.9725, 9.13526e-22, 3.65411e-17, 0.0434918
 7830, 281, 0.9725, 1.71662e-21, 6.86649e-17, 0.0434918
 7980, 286, 0.9725, 3.18955e-21, 1.27582e-16, 0.0434918
 8130, 291, 0.9725, 5.86157e-21, 2.34463e-16, 0.0434918
 8280, 296, 0.9725, 1.06575e-20, 4.263e-16, 0.0434918
 8430, 301, 0.9725, 1.91767e-20, 7.67069e-16, 0.0434918
 8580, 306, 0.9725, 3.41577e-20, 1.36631e-15, 0.0434918
 8730, 311, 0.9725, 6.02436e-20, 2.40975e-15, 0.0434918
 8880, 316, 0.9725, 1.05233e-19, 4.20931e-15, 0.0434918
 9030, 321, 0.9725, 1.82101e-19, 7.28406e-15, 0.0434918
 9180, 326, 0.9725, 3.12249e-19, 1.249e-14, 0.0434919
 9330, 331, 0.9725, 5.30655e-19, 2.12262e-14, 0.0434918
 9480, 336, 0.9725, 8.9401e-19, 3.57604e-14, 0.0434918
 9630, 341, 0.9725, 1.49343e-18, 5.97371e-14, 0.0434918
 9780, 346, 0.9725, 2.47415e-18, 9.89662e-14, 0.0434918
 9930, 351, 0.9725, 4.0659e-18, 1.62636e-13, 0.0434918
 10080, 356, 0.9725, 6.62915e-18, 2.65166e-13, 0.0434919
 10230, 361, 0.9725, 1.07253e-17, 4.29014e-13, 0.0434918
 10380, 366, 0.9725, 1.72225e-17, 6.88898e-13, 0.0434919
 10530, 371, 0.9725, 2.74528e-17, 1.09811e-12, 0.0434918
 10680, 376, 0.9725, 4.34468e-17, 1.73787e-12, 0.0434918
 10830, 381, 0.9725, 6.82781e-17, 2.73112e-12, 0.0434918
 10980, 386, 0.9725, 1.06568e-16, 4.26272e-12, 0.0434918
 11130, 391, 0.9725, 1.65219e-16, 6.60877e-12, 0.0434918
 11280, 396, 0.9725, 2.54477e-16, 1.01791e-11, 0.0434918
 11430, 401, 0.9725, 3.89453e-16, 1.55781e-11, 0.0434918
 11580, 406, 0.9725, 5.92297e-16, 2.36919e-11, 0.0434918
 11730, 411, 0.9725, 8.95287e-16, 3.58115e-11, 0.0434918
 11880, 416, 0.9725, 1.34519e-15, 5.38074e-11, 0.0434918
 12030, 421, 0.9725, 2.00934e-15, 8.03738e-11, 0.0434918
 12180, 426, 0.9725, 2.98424e-15, 1.1937e-10, 0.0434918
 12330, 431, 0.9725, 4.40731e-15, 1.76293e-10, 0.0434918
 12480, 436, 0.9725, 6.47331e-15, 2.58932e-10, 0.0434918
 12630, 441, 0.9725, 9.45672e-15, 3.78269e-10, 0.0434918
 12780, 446, 0.9725, 1.37425e-14, 5.497e-10, 0.0434918
 12930, 451, 0.9725, 1.98678e-14, 7.94712e-10, 0.0434918
 13080, 456, 0.9725, 2.85784e-14, 1.14314e-09, 0.0434918
 13230, 461, 0.9725, 4.09049e-14, 1.6362e-09, 0.0434918
 13380, 466, 0.9725, 5.82648e-14, 2.33059e-09, 0.0434918
 13530, 471, 0.9725, 8.25986e-14, 3.30394e-09, 0.0434918
 13680, 476, 0.9725, 1.16551e-13, 4.66203e-09, 0.0434918
 13830, 481, 0.9725, 1.6371e-13, 6.54841e-09, 0.0434918
 13980, 486, 0.9725, 2.28924e-13, 9.15697e-09, 0.0434919
 14130, 491, 0.9725, 3.18715e-13, 1.27486e-08, 0.0434918
 14280, 496, 0.9725, 4.41819e-13, 1.76728e-08, 0.0434918
 14430, 501, 0.9725, 6.09895e-13, 2.43958e-08, 0.0434918
 14580, 506, 0.9725, 8.38432e-13, 3.35373e-08, 0.0434918
 14730, 511, 0.9725, 1.14794e-12, 4.59175e-08, 0.0434918
 14880, 516, 0.9725, 1.56545e-12, 6.26181e-08, 0.0434918
 15030, 521, 0.9725, 2.1265e-12, 8.50599e-08, 0.0434918
 15180, 526, 0.9725, 2.87757e-12, 1.15103e-07, 0.0434919
 15330, 531, 0.9725, 3.87929e-12, 1.55172e-07, 0.0434918
 15480, 536, 0.9725, 5.21046e-12, 2.08418e-07, 0.0434919
 15630, 541, 0.9725, 6.9731e-12, 2.78924e-07, 0.0434918
 15780, 546, 0.9725, 9.29888e-12, 3.71955e-07, 0.0434918
 15930, 551, 0.9725, 1.23572e-11, 4.94287e-07, 0.0434918
 16080, 556, 0.9725, 1.63651e-11, 6.54603e-07, 0.0434918
 16230, 561, 0.9725, 2.16e-11, 8.64001e-07, 0.0434918
 16380, 566, 0.9725, 2.84154e-11, 1.13662e-06, 0.0434918
 16530, 571, 0.9725, 3.726e-11, 1.4904e-06, 0.0434918
 16680, 576, 0.9725, 4.87019e-11, 1.94808e-06, 0.0434918
 16830, 581, 0.9725, 6.34582e-11, 2.53833e-06, 0.0434919
 16980, 586, 0.9725, 8.24311e-11, 3.29725e-06, 0.0434919
 17130, 591, 0.9725, 1.06753e-10, 4.27012e-06, 0.0434918
 17280, 596, 0.9725, 1.37841e-10, 5.51363e-06, 0.0434918
 17430, 601, 0.9725, 1.77462e-10, 7.09847e-06, 0.0434919
 17580, 606, 0.9725, 2.27816e-10, 9.11263e-06, 0.0434918
 17730, 611, 0.9725, 2.91632e-10, 1.16653e-05, 0.0434919
 17880, 616, 0.9725, 3.7229e-10, 1.48916e-05, 0.0434919
 18030, 621, 0.9725, 4.7396e-10, 1.89584e-05, 0.0434919
 18180, 626, 0.9725, 6.01777e-10, 2.40711e-05, 0.0434919
 18330, 631, 0.9725, 7.62048e-10, 3.04819e-05, 0.0434919
 18480, 636, 0.972499, 9.62502e-10, 3.85001e-05, 0.0434921
 18630, 641, 0.972499, 1.21258e-09, 4.85033e-05, 0.0434921
 18780, 646, 0.972499, 1.5238e-09, 6.09521e-05, 0.0434922
 18930, 651, 0.972499, 1.91018e-09, 7.64071e-05, 0.0434923
 19080, 656, 0.972498, 2.3887e-09, 9.5548e-05, 0.0434924
 19230, 661, 0.972498, 2.97996e-09, 0.000119198, 0.0434925
 19380, 666, 0.972498, 3.70883e-09, 0.000148353, 0.0434927
 19530, 671, 0.972497, 4.60528e-09, 0.000184211, 0.0434928
 19680, 676, 0.972496, 5.70538e-09, 0.000228215, 0.0434931
 19830, 681, 0.972495, 7.05242e-09, 0.000282097, 0.0434934
 19980, 686, 0.972494, 8.69826e-09, 0.00034793, 0.0434938
 20130, 691, 0.972493, 1.07049e-08, 0.000428195, 0.0434943
 20280, 696, 0.972491, 1.31462e-08, 0.000525847, 0.0434948
 20430, 701, 0.972489, 1.61102e-08, 0.00064441, 0.0434956
 20580, 706, 0.972486, 1.97016e-08, 0.000788066, 0.0434964
 20730, 711, 0.972483, 2.40444e-08, 0.000961777, 0.0434973
 20880, 716, 0.972479, 2.92854e-08, 0.00117142, 0.0434986
 21030, 721, 0.972474, 3.5598e-08, 0.00142392, 0.0435
 21180, 726, 0.972468, 4.31869e-08, 0.00172748, 0.0435017
 21330, 731, 0.972461, 5.22928e-08, 0.00209171, 0.0435039
 21480, 736, 0.972452, 6.31985e-08, 0.00252794, 0.0435063
 21630, 741, 0.972442, 7.62359e-08, 0.00304944, 0.0435092
 21780, 746, 0.972429, 9.17936e-08, 0.00367174, 0.0435128
 21930, 751, 0.972414, 1.10326e-07, 0.00441302, 0.0435169
 22080, 756, 0.972396, 1.32362e-07, 0.00529446, 0.043522
 22230, 761, 0.972374, 1.58519e-07, 0.00634076, 0.0435279
 22380, 766, 0.972348, 1.89515e-07, 0.00758061, 0.0435349
 22530, 771, 0.972317, 2.26184e-07, 0.00904735, 0.0435432
 22680, 776, 0.97228, 2.6949e-07, 0.0107796, 0.0435529
 22830, 781, 0.972236, 3.20552e-07, 0.0128221, 0.0435643
 22980, 786, 0.972183, 3.80661e-07, 0.0152265, 0.0435778
 23130, 791, 0.972121, 4.51306e-07, 0.0180523, 0.0435936
 23280, 796, 0.972047, 5.34203e-07, 0.0213681, 0.0436121
 23400, 800, 0.971979, 6.10657e-07, 0.0244263, 0.0436291