File: examples/Birch_TGA_Example/tmp/birch_tga_1step_2_devc.csv
s,kg/m2,C,C
Time,"null","null","null"
 0.0000000E+000, 0.00556892, 20, 20
 96, 0.00556868, 22.82, 22.7272
 192, 0.00556827, 26.02, 25.928
 288, 0.00556765, 29.22, 29.1285
 384, 0.0055667, 32.42, 32.3285
 480, 0.00556528, 35.62, 35.5279
 576, 0.00556319, 38.82, 38.7266
 672, 0.00556013, 42.02, 41.9243
 768, 0.00555574, 45.22, 45.1209
 864, 0.00554957, 48.42, 48.3162
 960, 0.00554109, 51.62, 51.5103
 1056, 0.00552983, 54.82, 54.7035
 1152, 0.00551546, 58.02, 57.8968
 1248, 0.00549811, 61.22, 61.0917
 1344, 0.00547864, 64.42, 64.2905
 1440, 0.00545884, 67.62, 67.4953
 1536, 0.00544117, 70.82, 70.7065
 1632, 0.00542798, 74.02, 73.9215
 1728, 0.00542022, 77.22, 77.1357
 1824, 0.00541688, 80.42, 80.3449
 1920, 0.00541594, 83.62, 83.549
 2016, 0.00541578, 86.82, 86.7504
 2112, 0.00541577, 90.02, 89.9511
 2208, 0.00541577, 93.22, 93.1516
 2304, 0.00541577, 96.42, 96.3522
 2400, 0.00541577, 99.62, 99.5527
 2496, 0.00541577, 102.82, 102.753
 2592, 0.00541577, 106.02, 105.954
 2688, 0.00541577, 109.22, 109.154
 2784, 0.00541577, 112.42, 112.355
 2880, 0.00541577, 115.62, 115.555
 2976, 0.00541577, 118.82, 118.756
 3072, 0.00541577, 122.02, 121.956
 3168, 0.00541577, 125.22, 125.156
 3264, 0.00541577, 128.42, 128.357
 3360, 0.00541577, 131.62, 131.557
 3456, 0.00541577, 134.82, 134.758
 3552, 0.00541577, 138.02, 137.958
 3648, 0.00541577, 141.22, 141.158
 3744, 0.00541577, 144.42, 144.359
 3840, 0.00541577, 147.62, 147.559
 3936, 0.00541577, 150.82, 150.759
 4032, 0.00541577, 154.02, 153.96
 4128, 0.00541577, 157.22, 157.16
 4224, 0.00541577, 160.42, 160.36
 4320, 0.00541577, 163.62, 163.561
 4416, 0.00541576, 166.82, 166.761
 4512, 0.00541576, 170.02, 169.961
 4608, 0.00541576, 173.22, 173.161
 4704, 0.00541575, 176.42, 176.362
 4800, 0.00541575, 179.62, 179.562
 4896, 0.00541574, 182.82, 182.762
 4992, 0.00541573, 186.02, 185.962
 5088, 0.00541571, 189.22, 189.163
 5184, 0.00541569, 192.42, 192.363
 5280, 0.00541565, 195.62, 195.563
 5376, 0.00541561, 198.82, 198.763
 5472, 0.00541555, 202.02, 201.963
 5568, 0.00541547, 205.22, 205.164
 5664, 0.00541537, 208.42, 208.364
 5760, 0.00541522, 211.62, 211.564
 5856, 0.00541503, 214.82, 214.764
 5952, 0.00541478, 218.02, 217.964
 6048, 0.00541445, 221.22, 221.164
 6144, 0.00541401, 224.42, 224.365
 6240, 0.00541344, 227.62, 227.565
 6336, 0.00541268, 230.82, 230.765
 6432, 0.0054117, 234.02, 233.965
 6528, 0.00541043, 237.22, 237.165
 6624, 0.00540878, 240.42, 240.365
 6720, 0.00540665, 243.62, 243.565
 6816, 0.00540391, 246.82, 246.766
 6912, 0.0054004, 250.02, 249.966
 7008, 0.00539592, 253.22, 253.166
 7104, 0.00539021, 256.42, 256.366
 7200, 0.00538296, 259.62, 259.566
 7296, 0.00537378, 262.82, 262.766
 7392, 0.0053622, 266.02, 265.966
 7488, 0.00534765, 269.22, 269.166
 7584, 0.00532943, 272.42, 272.365
 7680, 0.00530668, 275.62, 275.565
 7776, 0.00527839, 278.82, 278.765
 7872, 0.00524337, 282.02, 281.965
 7968, 0.00520018, 285.22, 285.164
 8064, 0.00514718, 288.42, 288.364
 8160, 0.00508247, 291.62, 291.563
 8256, 0.00500392, 294.82, 294.762
 8352, 0.00490917, 298.02, 297.961
 8448, 0.00479571, 301.22, 301.16
 8544, 0.00466097, 304.42, 304.359
 8640, 0.00450245, 307.62, 307.558
 8736, 0.004318, 310.82, 310.757
 8832, 0.0041061, 314.02, 313.956
 8928, 0.00386624, 317.22, 317.155
 9024, 0.00359943, 320.42, 320.354
 9120, 0.00330862, 323.62, 323.553
 9216, 0.00299916, 326.82, 326.753
 9312, 0.00267903, 330.02, 329.953
 9408, 0.00235866, 333.22, 333.154
 9504, 0.00205037, 336.42, 336.356
 9600, 0.00176705, 339.62, 339.558
 9696, 0.00152044, 342.82, 342.761
 9792, 0.00131905, 346.02, 345.963
 9888, 0.00116647, 349.22, 349.166
 9984, 0.00106062, 352.42, 352.368
 10080, 0.000994375, 355.62, 355.57
 10176, 0.000957635, 358.82, 358.772
 10272, 0.000939939, 362.02, 361.972
 10368, 0.000932708, 365.22, 365.173
 10464, 0.000930269, 368.42, 368.373
 10560, 0.00092961, 371.62, 371.573
 10656, 0.000929473, 374.82, 374.773
 10752, 0.000929452, 378.02, 377.973
 10848, 0.000929449, 381.22, 381.173
 10944, 0.000929449, 384.42, 384.373
 11040, 0.000929449, 387.62, 387.573
 11136, 0.000929449, 390.82, 390.773
 11232, 0.000929449, 394.02, 393.973
 11328, 0.000929449, 397.22, 397.173
 11424, 0.000929449, 400.42, 400.373
 11520, 0.000929449, 403.62, 403.573
 11616, 0.000929449, 406.82, 406.773
 11712, 0.000929449, 410.02, 409.973
 11808, 0.000929449, 413.22, 413.173
 11904, 0.000929449, 416.42, 416.373
 12000, 0.000929449, 419.62, 419.573
 12096, 0.000929449, 422.82, 422.773
 12192, 0.000929449, 426.02, 425.973
 12288, 0.000929449, 429.22, 429.173
 12384, 0.000929449, 432.42, 432.373
 12480, 0.000929449, 435.62, 435.573
 12576, 0.000929449, 438.82, 438.773
 12672, 0.000929449, 442.02, 441.973
 12768, 0.000929449, 445.22, 445.173
 12864, 0.000929449, 448.42, 448.373
 12960, 0.000929449, 451.62, 451.573
 13056, 0.000929449, 454.82, 454.773
 13152, 0.000929449, 458.02, 457.973
 13248, 0.000929449, 461.22, 461.173
 13344, 0.000929449, 464.42, 464.373
 13440, 0.000929449, 467.62, 467.573
 13536, 0.000929449, 470.82, 470.773
 13632, 0.000929449, 474.02, 473.973
 13728, 0.000929449, 477.22, 477.173
 13824, 0.000929449, 480.42, 480.373
 13920, 0.000929449, 483.62, 483.573
 14016, 0.000929449, 486.82, 486.773
 14112, 0.000929449, 490.02, 489.973
 14208, 0.000929449, 493.22, 493.173
 14304, 0.000929449, 496.42, 496.373
 14400, 0.000929449, 499.62, 499.573
 14496, 0.000929449, 502.82, 502.773
 14592, 0.000929449, 506.02, 505.973
 14688, 0.000929449, 509.22, 509.173
 14784, 0.000929449, 512.42, 512.373
 14880, 0.000929449, 515.62, 515.573
 14976, 0.000929449, 518.82, 518.773
 15072, 0.000929449, 522.02, 521.973
 15168, 0.000929449, 525.22, 525.173
 15264, 0.000929449, 528.42, 528.373
 15360, 0.000929449, 531.62, 531.573
 15456, 0.000929449, 534.82, 534.773
 15552, 0.000929449, 538.02, 537.973
 15648, 0.000929449, 541.22, 541.173
 15744, 0.000929449, 544.42, 544.373
 15840, 0.000929449, 547.62, 547.573
 15936, 0.000929449, 550.82, 550.773
 16032, 0.000929449, 554.02, 553.973
 16128, 0.000929449, 557.22, 557.173
 16224, 0.000929449, 560.42, 560.373
 16320, 0.000929449, 563.62, 563.573
 16416, 0.000929449, 566.82, 566.773
 16512, 0.000929449, 570.02, 569.973
 16608, 0.000929449, 573.22, 573.173
 16704, 0.000929449, 576.42, 576.373
 16800, 0.000929449, 579.62, 579.573
 16896, 0.000929449, 582.82, 582.773
 16992, 0.000929449, 586.02, 585.973
 17088, 0.000929449, 589.22, 589.173
 17184, 0.000929449, 592.42, 592.373
 17280, 0.000929449, 595.62, 595.573
 17376, 0.000929449, 598.82, 598.773
 17472, 0.000929449, 602.02, 601.973
 17568, 0.000929449, 605.22, 605.173
 17664, 0.000929449, 608.42, 608.373
 17760, 0.000929449, 611.62, 611.573
 17856, 0.000929449, 614.82, 614.773
 17952, 0.000929449, 618.02, 617.973
 18048, 0.000929449, 621.22, 621.173
 18144, 0.000929449, 624.42, 624.373
 18240, 0.000929449, 627.62, 627.573
 18336, 0.000929449, 630.82, 630.773
 18432, 0.000929449, 634.02, 633.973
 18528, 0.000929449, 637.22, 637.173
 18624, 0.000929449, 640.42, 640.373
 18720, 0.000929449, 643.62, 643.573
 18816, 0.000929449, 646.82, 646.773
 18912, 0.000929449, 650.02, 649.973
 19008, 0.000929449, 653.22, 653.173
 19104, 0.000929449, 656.42, 656.373
 19200, 0.000929449, 659.62, 659.573
 19296, 0.000929449, 662.82, 662.773
 19392, 0.000929449, 666.02, 665.973
 19488, 0.000929449, 669.22, 669.173
 19584, 0.000929449, 672.42, 672.373
 19680, 0.000929449, 675.62, 675.573
 19776, 0.000929449, 678.82, 678.773
 19872, 0.000929449, 682.02, 681.973
 19968, 0.000929449, 685.22, 685.173
 20064, 0.000929449, 688.42, 688.373
 20160, 0.000929449, 691.62, 691.573
 20256, 0.000929449, 694.82, 694.773
 20352, 0.000929449, 698.02, 697.973
 20448, 0.000929449, 701.22, 701.173
 20544, 0.000929449, 704.42, 704.373
 20640, 0.000929449, 707.62, 707.573
 20736, 0.000929449, 710.82, 710.773
 20832, 0.000929449, 714.02, 713.973
 20928, 0.000929449, 717.22, 717.173
 21024, 0.000929449, 720.42, 720.373
 21120, 0.000929449, 723.62, 723.573
 21216, 0.000929449, 726.82, 726.773
 21312, 0.000929449, 730.02, 729.973
 21408, 0.000929449, 733.22, 733.173
 21504, 0.000929449, 736.42, 736.373
 21600, 0.000929449, 739.62, 739.573
 21696, 0.000929449, 742.82, 742.773
 21792, 0.000929449, 746.02, 745.973
 21888, 0.000929449, 749.22, 749.173
 21984, 0.000929449, 752.42, 752.373
 22080, 0.000929449, 755.62, 755.573
 22176, 0.000929449, 758.82, 758.773
 22272, 0.000929449, 762.02, 761.973
 22368, 0.000929449, 765.22, 765.173
 22464, 0.000929449, 768.42, 768.373
 22560, 0.000929449, 771.62, 771.573
 22656, 0.000929449, 774.82, 774.773
 22752, 0.000929449, 778.02, 777.973
 22848, 0.000929449, 781.22, 781.173
 22944, 0.000929449, 784.42, 784.373
 23040, 0.000929449, 787.62, 787.573
 23136, 0.000929449, 790.82, 790.773
 23232, 0.000929449, 794.02, 793.973
 23328, 0.000929449, 797.22, 797.173
 23424, 0.000929449, 800.42, 800.373
 23520, 0.000929449, 803.62, 803.573
 23616, 0.000929449, 806.82, 806.773
 23712, 0.000929449, 810.02, 809.973
 23808, 0.000929449, 813.22, 813.173
 23904, 0.000929449, 816.42, 816.373
 24000, 0.000929449, 819.62, 819.573