File: examples/Birch_TGA_Example/tmp/birch_tga_1step_2_hrr.csv
s,kW,kW,kW,kW,kW,kW,kW,kW,kW,kW,kg/s,kg/s,Pa
Time,HRR,Q_RADI,Q_CONV,Q_COND,Q_DIFF,Q_PRES,Q_PART,Q_GEOM,Q_ENTH,Q_TOTAL,MLR_FUEL,MLR_TOTAL,ZONE_1
 0.0000000E+000, 0.0000000E+000, 0.0000000E+000, 0.0000000E+000, 0.0000000E+000, 0.0000000E+000, 0.0000000E+000, 0.0000000E+000, 0.0000000E+000, 0.0000000E+000, 0.0000000E+000, 0.0000000E+000, 0.0000000E+000,-1.42781
 504, 0.0000000E+000, 0.0000000E+000, 0.0000000E+000, 0.0000000E+000, 3.66991e-07, 0.0000000E+000, 0.0000000E+000, 0.0000000E+000, 0.0000000E+000, 3.66991e-07, 7.13125e-20, 3.93397e-08,-1.42781
 1008, 0.0000000E+000, 0.0000000E+000, 0.0000000E+000, 0.0000000E+000, 5.42677e-06, 0.0000000E+000, 0.0000000E+000, 0.0000000E+000, 0.0000000E+000, 5.42677e-06, 2.35741e-18, 2.34074e-07,-1.42781
 1512, 0.0000000E+000, 0.0000000E+000, 0.0000000E+000, 0.0000000E+000, 1.30264e-05, 0.0000000E+000, 0.0000000E+000, 0.0000000E+000, 0.0000000E+000, 1.30264e-05, 5.551e-17, 3.50932e-07,-1.42781
 2016, 0.0000000E+000, 0.0000000E+000, 0.0000000E+000, 0.0000000E+000, 4.15097e-08, 0.0000000E+000, 0.0000000E+000, 0.0000000E+000, 0.0000000E+000, 4.15097e-08, 9.81426e-16, 8.10326e-10,-1.42781
 2520, 0.0000000E+000, 0.0000000E+000, 0.0000000E+000, 0.0000000E+000, 1.07889e-12, 0.0000000E+000, 0.0000000E+000, 0.0000000E+000, 0.0000000E+000, 1.07889e-12, 1.33327e-14, 1.33327e-14,-1.42781
 3024, 0.0000000E+000, 0.0000000E+000, 0.0000000E+000, 0.0000000E+000, 1.45215e-11, 0.0000000E+000, 0.0000000E+000, 0.0000000E+000, 0.0000000E+000, 1.45215e-11, 1.44936e-13, 1.44936e-13,-1.42781
 3528, 0.0000000E+000, 0.0000000E+000, 0.0000000E+000, 0.0000000E+000, 1.55795e-10, 0.0000000E+000, 0.0000000E+000, 0.0000000E+000, 0.0000000E+000, 1.55795e-10, 1.2958e-12, 1.2958e-12,-1.42781
 4032, 0.0000000E+000, 0.0000000E+000, 0.0000000E+000, 0.0000000E+000, 1.37538e-09, 0.0000000E+000, 0.0000000E+000, 0.0000000E+000, 0.0000000E+000, 1.37538e-09, 9.75065e-12, 9.75065e-12,-1.42781
 4536, 0.0000000E+000, 0.0000000E+000, 0.0000000E+000, 0.0000000E+000, 1.02448e-08, 0.0000000E+000, 0.0000000E+000, 0.0000000E+000, 0.0000000E+000, 1.02448e-08, 6.29743e-11, 6.29743e-11,-1.42781
 5040, 0.0000000E+000, 0.0000000E+000, 0.0000000E+000, 0.0000000E+000, 6.57127e-08, 0.0000000E+000, 0.0000000E+000, 0.0000000E+000, 0.0000000E+000, 6.57127e-08, 3.54969e-10, 3.54969e-10,-1.42781
 5544, 0.0000000E+000, 0.0000000E+000, 0.0000000E+000, 0.0000000E+000, 3.6915e-07, 0.0000000E+000, 0.0000000E+000, 0.0000000E+000, 0.0000000E+000, 3.6915e-07, 1.7715e-09, 1.7715e-09,-1.42781
 6048, 0.0000000E+000, 0.0000000E+000, 0.0000000E+000, 0.0000000E+000, 1.84204e-06, 0.0000000E+000, 0.0000000E+000, 0.0000000E+000, 0.0000000E+000, 1.84204e-06, 7.92398e-09, 7.92398e-09,-1.42781
 6552, 0.0000000E+000, 0.0000000E+000, 0.0000000E+000, 0.0000000E+000, 8.25974e-06, 0.0000000E+000, 0.0000000E+000, 0.0000000E+000, 0.0000000E+000, 8.25974e-06, 3.20949e-08, 3.20949e-08,-1.42781
 7056, 0.0000000E+000, 0.0000000E+000, 0.0000000E+000, 0.0000000E+000, 3.35579e-05, 0.0000000E+000, 0.0000000E+000, 0.0000000E+000, 0.0000000E+000, 3.35579e-05, 1.18582e-07, 1.18582e-07,-1.42781
 7560, 0.0000000E+000, 0.0000000E+000, 0.0000000E+000, 0.0000000E+000, 0.000123756, 0.0000000E+000, 0.0000000E+000, 0.0000000E+000, 0.0000000E+000, 0.000123756, 4.0026e-07, 4.0026e-07,-1.42781
 8064, 0.0000000E+000, 0.0000000E+000, 0.0000000E+000, 0.0000000E+000, 0.000408432, 0.0000000E+000, 0.0000000E+000, 0.0000000E+000, 0.0000000E+000, 0.000408432, 1.21785e-06, 1.21785e-06,-1.42781
 8568, 0.0000000E+000, 0.0000000E+000, 0.0000000E+000, 0.0000000E+000, 0.00114208, 0.0000000E+000, 0.0000000E+000, 0.0000000E+000, 0.0000000E+000, 0.00114208, 3.16943e-06, 3.16943e-06,-1.42781
 9072, 0.0000000E+000, 0.0000000E+000, 0.0000000E+000, 0.0000000E+000, 0.00232645, 0.0000000E+000, 0.0000000E+000, 0.0000000E+000, 0.0000000E+000, 0.00232645, 6.0608e-06, 6.0608e-06,-1.42781
 9576, 0.0000000E+000, 0.0000000E+000, 0.0000000E+000, 0.0000000E+000, 0.00237387, 0.0000000E+000, 0.0000000E+000, 0.0000000E+000, 0.0000000E+000, 0.00237387, 5.7458e-06, 5.7458e-06,-1.42781
 10080, 0.0000000E+000, 0.0000000E+000, 0.0000000E+000, 0.0000000E+000, 0.000469812, 0.0000000E+000, 0.0000000E+000, 0.0000000E+000, 0.0000000E+000, 0.000469812, 1.03835e-06, 1.03835e-06,-1.42781
 10584, 0.0000000E+000, 0.0000000E+000, 0.0000000E+000, 0.0000000E+000, 1.92631e-06, 0.0000000E+000, 0.0000000E+000, 0.0000000E+000, 0.0000000E+000, 1.92631e-06, 3.96377e-09, 3.96377e-09,-1.42781
 11088, 0.0000000E+000, 0.0000000E+000, 0.0000000E+000, 0.0000000E+000, 1.27276e-12, 0.0000000E+000, 0.0000000E+000, 0.0000000E+000, 0.0000000E+000, 1.27276e-12, 2.45678e-15, 2.45678e-15,-1.42781
 11592, 0.0000000E+000, 0.0000000E+000, 0.0000000E+000, 0.0000000E+000, 5.61059e-27, 0.0000000E+000, 0.0000000E+000, 0.0000000E+000, 0.0000000E+000, 5.61059e-27, 6.41711e-30, 6.41711e-30,-1.42781
 12096, 0.0000000E+000, 0.0000000E+000, 0.0000000E+000, 0.0000000E+000, 5.70757e-60, 0.0000000E+000, 0.0000000E+000, 0.0000000E+000, 0.0000000E+000, 5.70757e-60, 6.18768e-63, 6.18768e-63,-1.42781
 12600, 0.0000000E+000, 0.0000000E+000, 0.0000000E+000, 0.0000000E+000, 1.55009e-135, 0.0000000E+000, 0.0000000E+000, 0.0000000E+000, 0.0000000E+000, 1.55009e-135, 1.59575e-138, 1.59575e-138,-1.42781
 13104, 0.0000000E+000, 0.0000000E+000, 0.0000000E+000, 0.0000000E+000, 0.0000000E+000, 0.0000000E+000, 0.0000000E+000, 0.0000000E+000, 0.0000000E+000, 0.0000000E+000, 0.0000000E+000, 0.0000000E+000,-1.42781
 13608, 0.0000000E+000, 0.0000000E+000, 0.0000000E+000, 0.0000000E+000, 0.0000000E+000, 0.0000000E+000, 0.0000000E+000, 0.0000000E+000, 0.0000000E+000, 0.0000000E+000, 0.0000000E+000, 0.0000000E+000,-1.42781
 14112, 0.0000000E+000, 0.0000000E+000, 0.0000000E+000, 0.0000000E+000, 0.0000000E+000, 0.0000000E+000, 0.0000000E+000, 0.0000000E+000, 0.0000000E+000, 0.0000000E+000, 0.0000000E+000, 0.0000000E+000,-1.42781
 14616, 0.0000000E+000, 0.0000000E+000, 0.0000000E+000, 0.0000000E+000, 0.0000000E+000, 0.0000000E+000, 0.0000000E+000, 0.0000000E+000, 0.0000000E+000, 0.0000000E+000, 0.0000000E+000, 0.0000000E+000,-1.42781
 15120, 0.0000000E+000, 0.0000000E+000, 0.0000000E+000, 0.0000000E+000, 0.0000000E+000, 0.0000000E+000, 0.0000000E+000, 0.0000000E+000, 0.0000000E+000, 0.0000000E+000, 0.0000000E+000, 0.0000000E+000,-1.42781
 15624, 0.0000000E+000, 0.0000000E+000, 0.0000000E+000, 0.0000000E+000, 0.0000000E+000, 0.0000000E+000, 0.0000000E+000, 0.0000000E+000, 0.0000000E+000, 0.0000000E+000, 0.0000000E+000, 0.0000000E+000,-1.42781
 16128, 0.0000000E+000, 0.0000000E+000, 0.0000000E+000, 0.0000000E+000, 0.0000000E+000, 0.0000000E+000, 0.0000000E+000, 0.0000000E+000, 0.0000000E+000, 0.0000000E+000, 0.0000000E+000, 0.0000000E+000,-1.42781
 16632, 0.0000000E+000, 0.0000000E+000, 0.0000000E+000, 0.0000000E+000, 0.0000000E+000, 0.0000000E+000, 0.0000000E+000, 0.0000000E+000, 0.0000000E+000, 0.0000000E+000, 0.0000000E+000, 0.0000000E+000,-1.42781
 17136, 0.0000000E+000, 0.0000000E+000, 0.0000000E+000, 0.0000000E+000, 0.0000000E+000, 0.0000000E+000, 0.0000000E+000, 0.0000000E+000, 0.0000000E+000, 0.0000000E+000, 0.0000000E+000, 0.0000000E+000,-1.42781
 17640, 0.0000000E+000, 0.0000000E+000, 0.0000000E+000, 0.0000000E+000, 0.0000000E+000, 0.0000000E+000, 0.0000000E+000, 0.0000000E+000, 0.0000000E+000, 0.0000000E+000, 0.0000000E+000, 0.0000000E+000,-1.42781
 18144, 0.0000000E+000, 0.0000000E+000, 0.0000000E+000, 0.0000000E+000, 0.0000000E+000, 0.0000000E+000, 0.0000000E+000, 0.0000000E+000, 0.0000000E+000, 0.0000000E+000, 0.0000000E+000, 0.0000000E+000,-1.42781
 18648, 0.0000000E+000, 0.0000000E+000, 0.0000000E+000, 0.0000000E+000, 0.0000000E+000, 0.0000000E+000, 0.0000000E+000, 0.0000000E+000, 0.0000000E+000, 0.0000000E+000, 0.0000000E+000, 0.0000000E+000,-1.42781
 19152, 0.0000000E+000, 0.0000000E+000, 0.0000000E+000, 0.0000000E+000, 0.0000000E+000, 0.0000000E+000, 0.0000000E+000, 0.0000000E+000, 0.0000000E+000, 0.0000000E+000, 0.0000000E+000, 0.0000000E+000,-1.42781
 19656, 0.0000000E+000, 0.0000000E+000, 0.0000000E+000, 0.0000000E+000, 0.0000000E+000, 0.0000000E+000, 0.0000000E+000, 0.0000000E+000, 0.0000000E+000, 0.0000000E+000, 0.0000000E+000, 0.0000000E+000,-1.42781
 20160, 0.0000000E+000, 0.0000000E+000, 0.0000000E+000, 0.0000000E+000, 0.0000000E+000, 0.0000000E+000, 0.0000000E+000, 0.0000000E+000, 0.0000000E+000, 0.0000000E+000, 0.0000000E+000, 0.0000000E+000,-1.42781
 20664, 0.0000000E+000, 0.0000000E+000, 0.0000000E+000, 0.0000000E+000, 0.0000000E+000, 0.0000000E+000, 0.0000000E+000, 0.0000000E+000, 0.0000000E+000, 0.0000000E+000, 0.0000000E+000, 0.0000000E+000,-1.42781
 21168, 0.0000000E+000, 0.0000000E+000, 0.0000000E+000, 0.0000000E+000, 0.0000000E+000, 0.0000000E+000, 0.0000000E+000, 0.0000000E+000, 0.0000000E+000, 0.0000000E+000, 0.0000000E+000, 0.0000000E+000,-1.42781
 21672, 0.0000000E+000, 0.0000000E+000, 0.0000000E+000, 0.0000000E+000, 0.0000000E+000, 0.0000000E+000, 0.0000000E+000, 0.0000000E+000, 0.0000000E+000, 0.0000000E+000, 0.0000000E+000, 0.0000000E+000,-1.42781
 22176, 0.0000000E+000, 0.0000000E+000, 0.0000000E+000, 0.0000000E+000, 0.0000000E+000, 0.0000000E+000, 0.0000000E+000, 0.0000000E+000, 0.0000000E+000, 0.0000000E+000, 0.0000000E+000, 0.0000000E+000,-1.42781
 22680, 0.0000000E+000, 0.0000000E+000, 0.0000000E+000, 0.0000000E+000, 0.0000000E+000, 0.0000000E+000, 0.0000000E+000, 0.0000000E+000, 0.0000000E+000, 0.0000000E+000, 0.0000000E+000, 0.0000000E+000,-1.42781
 23184, 0.0000000E+000, 0.0000000E+000, 0.0000000E+000, 0.0000000E+000, 0.0000000E+000, 0.0000000E+000, 0.0000000E+000, 0.0000000E+000, 0.0000000E+000, 0.0000000E+000, 0.0000000E+000, 0.0000000E+000,-1.42781
 23688, 0.0000000E+000, 0.0000000E+000, 0.0000000E+000, 0.0000000E+000, 0.0000000E+000, 0.0000000E+000, 0.0000000E+000, 0.0000000E+000, 0.0000000E+000, 0.0000000E+000, 0.0000000E+000, 0.0000000E+000,-1.42781
 24000, 0.0000000E+000, 0.0000000E+000, 0.0000000E+000, 0.0000000E+000, 0.0000000E+000, 0.0000000E+000, 0.0000000E+000, 0.0000000E+000, 0.0000000E+000, 0.0000000E+000, 0.0000000E+000, 0.0000000E+000,-1.42781