File: examples/Birch_TGA_Example/Work/Cone_ixa4_k2v/birch_tga_1step_2_tga.csv
s,C,g/g,1/s,W/g,W/g
Time,Temp,Mass,MLR,MCC,DSC
 30, 21.0001, 0.999987, 4.80453e-07, 0.0000000E+000, 0.0484218
 180, 26.0001, 0.999883, 9.4801e-07, 0.0000000E+000, 0.0494653
 330, 31.0001, 0.999682, 1.82243e-06, 0.0000000E+000, 0.0514158
 480, 36.0001, 0.999301, 3.40628e-06, 0.0000000E+000, 0.0549465
 630, 41.0001, 0.998602, 6.16185e-06, 0.0000000E+000, 0.0610839
 780, 46.0001, 0.997364, 1.06929e-05, 0.0000000E+000, 0.0711637
 930, 51.0001, 0.995278, 1.75185e-05, 0.0000000E+000, 0.0863168
 1080, 56.0001, 0.992004, 2.63566e-05, 0.0000000E+000, 0.105858
 1230, 61.0001, 0.987387, 3.47561e-05, 3.31353e-38, 0.124218
 1380, 66.0001, 0.981873, 3.72041e-05, 1.91995e-37, 0.128986
 1530, 71.0001, 0.976798, 2.85552e-05, 1.05711e-36, 0.108706
 1680, 76.0001, 0.973677, 1.29016e-05, 5.54289e-36, 0.0728489
 1830, 81.0001, 0.972641, 2.51929e-06, 2.77351e-35, 0.0492118
 1980, 86.0001, 0.972505, 1.31928e-07, 1.32694e-34, 0.0437909
 2130, 91.0001, 0.9725, 8.95175e-10, 6.08141e-34, 0.0434938
 2280, 96.0001, 0.9725, 2.63279e-13, 2.67453e-33, 0.0434918
 2430, 101, 0.9725, 6.58164e-19, 1.13057e-32, 0.0434918
 2580, 106, 0.9725, 1.27292e-27, 4.60082e-32, 0.0434918
 2730, 111, 0.9725, 4.51286e-36, 1.80512e-31, 0.0434918
 2880, 116, 0.9725, 1.70947e-35, 6.83788e-31, 0.0434918
 3030, 121, 0.9725, 6.2604e-35, 2.50416e-30, 0.0434918
 3180, 126, 0.9725, 2.21932e-34, 8.87726e-30, 0.0434918
 3330, 131, 0.9725, 7.62495e-34, 3.04998e-29, 0.0434918
 3480, 136, 0.9725, 2.54187e-33, 1.01675e-28, 0.0434918
 3630, 141, 0.9725, 8.23084e-33, 3.29234e-28, 0.0434918
 3780, 146, 0.9725, 2.59155e-32, 1.03662e-27, 0.0434918
 3930, 151, 0.9725, 7.94205e-32, 3.17682e-27, 0.0434918
 4080, 156, 0.9725, 2.37122e-31, 9.48487e-27, 0.0434918
 4230, 161, 0.9725, 6.90349e-31, 2.76139e-26, 0.0434918
 4380, 166, 0.9725, 1.96154e-30, 7.84616e-26, 0.0434918
 4530, 171, 0.9725, 5.44396e-30, 2.17759e-25, 0.0434918
 4680, 176, 0.9725, 1.47694e-29, 5.90776e-25, 0.0434918
 4830, 181, 0.9725, 3.91982e-29, 1.56793e-24, 0.0434918
 4980, 186, 0.9725, 1.01844e-28, 4.07378e-24, 0.0434918
 5130, 191, 0.9725, 2.59224e-28, 1.03689e-23, 0.0434918
 5280, 196, 0.9725, 6.4679e-28, 2.58716e-23, 0.0434918
 5430, 201, 0.9725, 1.58299e-27, 6.33195e-23, 0.0434918
 5580, 206, 0.9725, 3.80258e-27, 1.52103e-22, 0.0434918
 5730, 211, 0.9725, 8.97055e-27, 3.58822e-22, 0.0434918
 5880, 216, 0.9725, 2.07941e-26, 8.31762e-22, 0.0434918
 6030, 221, 0.9725, 4.73882e-26, 1.89553e-21, 0.0434918
 6180, 226, 0.9725, 1.06227e-25, 4.24908e-21, 0.0434918
 6330, 231, 0.9725, 2.3434e-25, 9.37358e-21, 0.0434918
 6480, 236, 0.9725, 5.08988e-25, 2.03595e-20, 0.0434918
 6630, 241, 0.9725, 1.08897e-24, 4.3559e-20, 0.0434918
 6780, 246, 0.9725, 2.29597e-24, 9.18387e-20, 0.0434918
 6930, 251, 0.9725, 4.77236e-24, 1.90894e-19, 0.0434918
 7080, 256, 0.9725, 9.78352e-24, 3.91341e-19, 0.0434919
 7230, 261, 0.9725, 1.97888e-23, 7.91554e-19, 0.0434918
 7380, 266, 0.9725, 3.95068e-23, 1.58027e-18, 0.0434918
 7530, 271, 0.9725, 7.78763e-23, 3.11505e-18, 0.0434918
 7680, 276, 0.9725, 1.51625e-22, 6.06501e-18, 0.0434918
 7830, 281, 0.9725, 2.91686e-22, 1.16675e-17, 0.0434918
 7980, 286, 0.9725, 5.54599e-22, 2.2184e-17, 0.0434918
 8130, 291, 0.9725, 1.04255e-21, 4.17018e-17, 0.0434918
 8280, 296, 0.9725, 1.93818e-21, 7.75274e-17, 0.0434918
 8430, 301, 0.9725, 3.56455e-21, 1.42582e-16, 0.0434918
 8580, 306, 0.9725, 6.48702e-21, 2.59481e-16, 0.0434918
 8730, 311, 0.9725, 1.16852e-20, 4.67406e-16, 0.0434918
 8880, 316, 0.9725, 2.08394e-20, 8.33576e-16, 0.0434918
 9030, 321, 0.9725, 3.6805e-20, 1.4722e-15, 0.0434918
 9180, 326, 0.9725, 6.43882e-20, 2.57553e-15, 0.0434918
 9330, 331, 0.9725, 1.11605e-19, 4.46421e-15, 0.0434918
 9480, 336, 0.9725, 1.91709e-19, 7.66835e-15, 0.0434918
 9630, 341, 0.9725, 3.26417e-19, 1.30567e-14, 0.0434918
 9780, 346, 0.9725, 5.51025e-19, 2.2041e-14, 0.0434918
 9930, 351, 0.9725, 9.22416e-19, 3.68966e-14, 0.0434918
 10080, 356, 0.9725, 1.53153e-18, 6.12612e-14, 0.0434918
 10230, 361, 0.9725, 2.52262e-18, 1.00905e-13, 0.0434918
 10380, 366, 0.9725, 4.12275e-18, 1.6491e-13, 0.0434918
 10530, 371, 0.9725, 6.68667e-18, 2.67467e-13, 0.0434918
 10680, 376, 0.9725, 1.07646e-17, 4.30584e-13, 0.0434918
 10830, 381, 0.9725, 1.72038e-17, 6.88153e-13, 0.0434918
 10980, 386, 0.9725, 2.73e-17, 1.092e-12, 0.0434918
 11130, 391, 0.9725, 4.30211e-17, 1.72084e-12, 0.0434918
 11280, 396, 0.9725, 6.7336e-17, 2.69344e-12, 0.0434918
 11430, 401, 0.9725, 1.04695e-16, 4.18782e-12, 0.0434918
 11580, 406, 0.9725, 1.61728e-16, 6.46913e-12, 0.0434918
 11730, 411, 0.9725, 2.48247e-16, 9.92987e-12, 0.0434918
 11880, 416, 0.9725, 3.78687e-16, 1.51475e-11, 0.0434917
 12030, 421, 0.9725, 5.74163e-16, 2.29665e-11, 0.0434918
 12180, 426, 0.9725, 8.65377e-16, 3.46151e-11, 0.0434918
 12330, 431, 0.9725, 1.29672e-15, 5.18686e-11, 0.0434918
 12480, 436, 0.9725, 1.932e-15, 7.728e-11, 0.0434918
 12630, 441, 0.9725, 2.8625e-15, 1.145e-10, 0.0434918
 12780, 446, 0.9725, 4.21802e-15, 1.68721e-10, 0.0434918
 12930, 451, 0.9725, 6.18227e-15, 2.47291e-10, 0.0434918
 13080, 456, 0.9725, 9.01383e-15, 3.60553e-10, 0.0434918
 13230, 461, 0.9725, 1.3075e-14, 5.22999e-10, 0.0434918
 13380, 466, 0.9725, 1.88706e-14, 7.54825e-10, 0.0434918
 13530, 471, 0.9725, 2.71013e-14, 1.08405e-09, 0.0434918
 13680, 476, 0.9725, 3.87344e-14, 1.54937e-09, 0.0434918
 13830, 481, 0.9725, 5.50992e-14, 2.20397e-09, 0.0434918
 13980, 486, 0.9725, 7.80151e-14, 3.1206e-09, 0.0434918
 14130, 491, 0.9725, 1.0996e-13, 4.39841e-09, 0.0434918
 14280, 496, 0.9725, 1.54296e-13, 6.17183e-09, 0.0434917
 14430, 501, 0.9725, 2.15562e-13, 8.62248e-09, 0.0434918
 14580, 506, 0.9725, 2.99866e-13, 1.19946e-08, 0.0434918
 14730, 511, 0.9725, 4.15387e-13, 1.66155e-08, 0.0434918
 14880, 516, 0.9725, 5.73042e-13, 2.29217e-08, 0.0434918
 15030, 521, 0.9725, 7.87335e-13, 3.14934e-08, 0.0434918
 15180, 526, 0.9725, 1.07747e-12, 4.30989e-08, 0.0434918
 15330, 531, 0.9725, 1.46879e-12, 5.87515e-08, 0.0434918
 15480, 536, 0.9725, 1.99457e-12, 7.97827e-08, 0.0434918
 15630, 541, 0.9725, 2.6984e-12, 1.07936e-07, 0.0434918
 15780, 546, 0.9725, 3.63715e-12, 1.45486e-07, 0.0434918
 15930, 551, 0.9725, 4.88476e-12, 1.95391e-07, 0.0434918
 16080, 556, 0.9725, 6.53703e-12, 2.61481e-07, 0.0434918
 16230, 561, 0.9725, 8.71768e-12, 3.48707e-07, 0.0434918
 16380, 566, 0.9725, 1.15859e-11, 4.63438e-07, 0.0434918
 16530, 571, 0.9725, 1.53461e-11, 6.13844e-07, 0.0434918
 16680, 576, 0.9725, 2.02595e-11, 8.10378e-07, 0.0434918
 16830, 581, 0.9725, 2.66591e-11, 1.06636e-06, 0.0434918
 16980, 586, 0.9725, 3.49683e-11, 1.39873e-06, 0.0434918
 17130, 591, 0.9725, 4.57236e-11, 1.82895e-06, 0.0434918
 17280, 596, 0.9725, 5.96028e-11, 2.38411e-06, 0.0434918
 17430, 601, 0.9725, 7.74597e-11, 3.09839e-06, 0.0434918
 17580, 606, 0.9725, 1.00367e-10, 4.01467e-06, 0.0434919
 17730, 611, 0.9725, 1.29668e-10, 5.18671e-06, 0.0434919
 17880, 616, 0.9725, 1.67041e-10, 6.68164e-06, 0.0434919
 18030, 621, 0.9725, 2.14577e-10, 8.58309e-06, 0.0434919
 18180, 626, 0.9725, 2.74875e-10, 1.0995e-05, 0.0434918
 18330, 631, 0.9725, 3.51153e-10, 1.40461e-05, 0.0434918
 18480, 636, 0.9725, 4.47392e-10, 1.78957e-05, 0.0434919
 18630, 641, 0.9725, 5.68498e-10, 2.27399e-05, 0.0434919
 18780, 646, 0.9725, 7.20507e-10, 2.88203e-05, 0.0434919
 18930, 651, 0.972499, 9.10822e-10, 3.64329e-05, 0.043492
 19080, 656, 0.972499, 1.14851e-09, 4.59403e-05, 0.0434921
 19230, 661, 0.972499, 1.44463e-09, 5.7785e-05, 0.0434922
 19380, 666, 0.972499, 1.81266e-09, 7.25064e-05, 0.0434922
 19530, 671, 0.972499, 2.26899e-09, 9.07598e-05, 0.0434923
 19680, 676, 0.972498, 2.8335e-09, 0.00011334, 0.0434924
 19830, 681, 0.972498, 3.53022e-09, 0.000141209, 0.0434926
 19980, 686, 0.972497, 4.38818e-09, 0.000175527, 0.0434928
 20130, 691, 0.972496, 5.44236e-09, 0.000217694, 0.043493
 20280, 696, 0.972495, 6.7348e-09, 0.000269392, 0.0434934
 20430, 701, 0.972494, 8.31597e-09, 0.000332639, 0.0434937
 20580, 706, 0.972493, 1.02463e-08, 0.00040985, 0.0434942
 20730, 711, 0.972491, 1.25978e-08, 0.000503914, 0.0434947
 20880, 716, 0.972489, 1.54568e-08, 0.000618272, 0.0434954
 21030, 721, 0.972487, 1.89256e-08, 0.000757024, 0.0434962
 21180, 726, 0.972483, 2.31259e-08, 0.000925037, 0.0434972
 21330, 731, 0.97248, 2.82021e-08, 0.00112808, 0.0434983
 21480, 736, 0.972475, 3.43249e-08, 0.001373, 0.0434997
 21630, 741, 0.972469, 4.16961e-08, 0.00166784, 0.0435014
 21780, 746, 0.972462, 5.05535e-08, 0.00202214, 0.0435034
 21930, 751, 0.972454, 6.11772e-08, 0.00244709, 0.0435058
 22080, 756, 0.972444, 7.38962e-08, 0.00295585, 0.0435088
 22230, 761, 0.972432, 8.90964e-08, 0.00356386, 0.0435121
 22380, 766, 0.972417, 1.0723e-07, 0.00428919, 0.0435163
 22530, 771, 0.972399, 1.28824e-07, 0.00515297, 0.0435211
 22680, 776, 0.972378, 1.54497e-07, 0.00617987, 0.043527
 22830, 781, 0.972353, 1.84965e-07, 0.0073986, 0.0435339
 22980, 786, 0.972322, 2.21064e-07, 0.00884257, 0.0435421
 23130, 791, 0.972286, 2.63765e-07, 0.0105506, 0.0435517
 23280, 796, 0.972243, 3.14191e-07, 0.0125677, 0.043563
 23400, 800, 0.972202, 3.60963e-07, 0.0144385, 0.0435734