File: examples/Birch_TGA_Example/Work/Cone_ixa4_k2v/birch_tga_1step_10_tga.csv
s,C,g/g,1/s,W/g,W/g
Time,Temp,Mass,MLR,MCC,DSC
 6, 21.0007, 0.999998, 4.369e-07, 0.0000000E+000, 0.236481
 12, 22.0007, 0.999995, 5.01762e-07, 0.0000000E+000, 0.236626
 18, 23.0007, 0.999992, 5.75705e-07, 0.0000000E+000, 0.236791
 24, 24.0007, 0.999988, 6.5992e-07, 0.0000000E+000, 0.236979
 30, 25.0007, 0.999984, 7.55746e-07, 0.0000000E+000, 0.237193
 36, 26.0007, 0.999979, 8.64679e-07, 0.0000000E+000, 0.237436
 42, 27.0007, 0.999973, 9.88398e-07, 0.0000000E+000, 0.237712
 48, 28.0007, 0.999967, 1.12878e-06, 0.0000000E+000, 0.238026
 54, 29.0007, 0.99996, 1.28792e-06, 0.0000000E+000, 0.238381
 60, 30.0007, 0.999951, 1.46815e-06, 0.0000000E+000, 0.238783
 66, 31.0007, 0.999942, 1.67208e-06, 0.0000000E+000, 0.239238
 72, 32.0007, 0.999931, 1.90261e-06, 0.0000000E+000, 0.239752
 78, 33.0007, 0.999919, 2.16297e-06, 0.0000000E+000, 0.240332
 84, 34.0007, 0.999905, 2.45672e-06, 0.0000000E+000, 0.240988
 90, 35.0007, 0.999889, 2.78785e-06, 0.0000000E+000, 0.241726
 96, 36.0007, 0.999872, 3.16074e-06, 0.0000000E+000, 0.242557
 102, 37.0007, 0.999851, 3.58024e-06, 0.0000000E+000, 0.243492
 108, 38.0007, 0.999829, 4.05172e-06, 0.0000000E+000, 0.244543
 114, 39.0007, 0.999803, 4.58107e-06, 0.0000000E+000, 0.245723
 120, 40.0007, 0.999773, 5.17477e-06, 0.0000000E+000, 0.247046
 126, 41.0007, 0.99974, 5.83993e-06, 0.0000000E+000, 0.248528
 132, 42.0007, 0.999703, 6.58435e-06, 0.0000000E+000, 0.250187
 138, 43.0007, 0.999661, 7.41652e-06, 0.0000000E+000, 0.252041