File: examples/Birch_TGA_Example/Work/Cone_ixa4_k2v/birch_tga_1step_5_tga.csv
s,C,g/g,1/s,W/g,W/g
Time,Temp,Mass,MLR,MCC,DSC
 12, 21.0003, 0.999993, 6.11641e-07, 0.0000000E+000, 0.121505
 72, 26.0003, 0.99994, 1.2096e-06, 0.0000000E+000, 0.12284
 132, 31.0003, 0.999838, 2.33562e-06, 0.0000000E+000, 0.125352
 192, 36.0003, 0.999641, 4.40258e-06, 0.0000000E+000, 0.12996
 252, 41.0003, 0.999277, 8.09149e-06, 0.0000000E+000, 0.13818
 312, 46.0003, 0.998617, 1.4457e-05, 0.0000000E+000, 0.152354
 372, 51.0003, 0.997459, 2.49637e-05, 0.0000000E+000, 0.175724
 432, 56.0003, 0.995506, 4.12227e-05, 0.0000000E+000, 0.211832
 492, 61.0003, 0.992381, 6.39249e-05, 3.38722e-38, 0.262109
 552, 66.0002, 0.987756, 9.03173e-05, 1.96264e-37, 0.320212
 612, 71.0002, 0.981658, 0.000110681, 1.08061e-36, 0.364157
 672, 76.0002, 0.974924, 0.000108763, 5.66606e-36, 0.35746
 732, 81.0003, 0.96925, 7.57684e-05, 2.83518e-35, 0.280815
 792, 86.0003, 0.966081, 3.09276e-05, 1.35647e-34, 0.178244
 852, 91.0004, 0.965122, 5.53148e-06, 6.21683e-34, 0.120447
 912, 96.0004, 0.965004, 2.79825e-07, 2.73409e-33, 0.108525
 972, 101, 0.965, 2.08746e-09, 1.15575e-32, 0.107895
 1032, 106, 0.965, 8.80702e-13, 4.70331e-32, 0.10789
 1092, 111, 0.965, 5.20756e-18, 1.84534e-31, 0.10789
 1152, 116, 0.965, 5.77881e-26, 6.99024e-31, 0.10789
 1212, 121, 0.965, 6.40672e-35, 2.55996e-30, 0.10789
 1272, 126, 0.965, 2.26877e-34, 9.07509e-30, 0.10789
 1332, 131, 0.965, 7.79487e-34, 3.11795e-29, 0.10789
 1392, 136, 0.965, 2.59852e-33, 1.03941e-28, 0.10789
 1452, 141, 0.965, 8.4143e-33, 3.36572e-28, 0.10789
 1512, 146, 0.965, 2.64932e-32, 1.05973e-27, 0.10789
 1572, 151, 0.965, 8.1191e-32, 3.24764e-27, 0.10789
 1632, 156, 0.965, 2.42408e-31, 9.69633e-27, 0.10789
 1692, 161, 0.965, 7.0574e-31, 2.82296e-26, 0.10789
 1752, 166, 0.965, 2.00528e-30, 8.02111e-26, 0.10789
 1812, 171, 0.965, 5.56535e-30, 2.22614e-25, 0.10789
 1872, 176, 0.965, 1.50988e-29, 6.0395e-25, 0.10789
 1932, 181, 0.965, 4.00724e-29, 1.60289e-24, 0.10789
 1992, 186, 0.965, 1.04116e-28, 4.16463e-24, 0.10789
 2052, 191, 0.965, 2.65005e-28, 1.06002e-23, 0.10789
 2112, 196, 0.965, 6.61216e-28, 2.64487e-23, 0.10789
 2172, 201, 0.965, 1.6183e-27, 6.47319e-23, 0.10789
 2232, 206, 0.965, 3.88741e-27, 1.55496e-22, 0.10789
 2292, 211, 0.965, 9.17066e-27, 3.66826e-22, 0.10789
 2352, 216, 0.965, 2.12579e-26, 8.50318e-22, 0.10789
 2412, 221, 0.965, 4.84454e-26, 1.93782e-21, 0.10789
 2472, 226, 0.965, 1.08597e-25, 4.34388e-21, 0.10789
 2532, 231, 0.965, 2.39568e-25, 9.58272e-21, 0.10789
 2592, 236, 0.965, 5.20345e-25, 2.08138e-20, 0.10789
 2652, 241, 0.965, 1.11327e-24, 4.45309e-20, 0.10789
 2712, 246, 0.965, 2.3472e-24, 9.3888e-20, 0.10789
 2772, 251, 0.965, 4.87885e-24, 1.95154e-19, 0.10789
 2832, 256, 0.965, 1.00018e-23, 4.00074e-19, 0.10789
 2892, 261, 0.965, 2.02305e-23, 8.09219e-19, 0.10789
 2952, 266, 0.965, 4.03885e-23, 1.61554e-18, 0.10789
 3012, 271, 0.965, 7.96143e-23, 3.18457e-18, 0.10789
 3072, 276, 0.965, 1.55009e-22, 6.20037e-18, 0.10789
 3132, 281, 0.965, 2.98197e-22, 1.19279e-17, 0.10789
 3192, 286, 0.965, 5.66977e-22, 2.26791e-17, 0.10789
 3252, 291, 0.965, 1.06582e-21, 4.26326e-17, 0.10789
 3312, 296, 0.965, 1.98145e-21, 7.92579e-17, 0.10789
 3372, 301, 0.965, 3.64412e-21, 1.45765e-16, 0.10789
 3432, 306, 0.965, 6.63183e-21, 2.65273e-16, 0.10789
 3492, 311, 0.965, 1.1946e-20, 4.7784e-16, 0.10789
 3552, 316, 0.965, 2.13046e-20, 8.52184e-16, 0.10789
 3612, 321, 0.965, 3.76267e-20, 1.50507e-15, 0.10789
 3672, 326, 0.965, 6.58256e-20, 2.63303e-15, 0.10789
 3732, 331, 0.965, 1.14097e-19, 4.56388e-15, 0.10789
 3792, 336, 0.965, 1.95989e-19, 7.83955e-15, 0.10789
 3852, 341, 0.965, 3.33705e-19, 1.33482e-14, 0.10789
 3912, 346, 0.965, 5.63328e-19, 2.25331e-14, 0.10789
 3972, 351, 0.965, 9.43011e-19, 3.77204e-14, 0.10789
 4032, 356, 0.965, 1.56572e-18, 6.2629e-14, 0.10789
 4092, 361, 0.965, 2.57894e-18, 1.03158e-13, 0.10789
 4152, 366, 0.965, 4.2148e-18, 1.68592e-13, 0.10789
 4212, 371, 0.965, 6.83598e-18, 2.73439e-13, 0.10789
 4272, 376, 0.965, 1.1005e-17, 4.40199e-13, 0.10789
 4332, 381, 0.965, 1.7588e-17, 7.0352e-13, 0.10789
 4392, 386, 0.965, 2.79096e-17, 1.11639e-12, 0.10789
 4452, 391, 0.965, 4.39818e-17, 1.75927e-12, 0.10789
 4512, 396, 0.965, 6.88397e-17, 2.75359e-12, 0.10789
 4572, 401, 0.965, 1.07033e-16, 4.28134e-12, 0.10789
 4632, 406, 0.965, 1.6534e-16, 6.6136e-12, 0.10789
 4692, 411, 0.965, 2.53791e-16, 1.01516e-11, 0.10789
 4752, 416, 0.965, 3.87144e-16, 1.54858e-11, 0.10789
 4812, 421, 0.965, 5.86986e-16, 2.34795e-11, 0.10789
 4872, 426, 0.965, 8.84704e-16, 3.53881e-11, 0.10789
 4932, 431, 0.965, 1.32568e-15, 5.3027e-11, 0.10789
 4992, 436, 0.965, 1.97515e-15, 7.9006e-11, 0.10789
 5052, 441, 0.965, 2.92643e-15, 1.17057e-10, 0.10789
 5112, 446, 0.965, 4.31223e-15, 1.72489e-10, 0.10789
 5172, 451, 0.965, 6.32035e-15, 2.52814e-10, 0.10789
 5232, 456, 0.965, 9.21516e-15, 3.68606e-10, 0.10789
 5292, 461, 0.965, 1.3367e-14, 5.3468e-10, 0.10789
 5352, 466, 0.965, 1.92921e-14, 7.71685e-10, 0.10789
 5412, 471, 0.965, 2.77067e-14, 1.10827e-09, 0.10789
 5472, 476, 0.965, 3.95995e-14, 1.58398e-09, 0.10789
 5532, 481, 0.965, 5.633e-14, 2.2532e-09, 0.10789
 5592, 486, 0.965, 7.97577e-14, 3.19031e-09, 0.10789
 5652, 491, 0.965, 1.12416e-13, 4.49665e-09, 0.10789
 5712, 496, 0.965, 1.57742e-13, 6.3097e-09, 0.10789
 5772, 501, 0.965, 2.20377e-13, 8.81509e-09, 0.10789
 5832, 506, 0.965, 3.06564e-13, 1.22626e-08, 0.10789
 5892, 511, 0.965, 4.24666e-13, 1.69867e-08, 0.10789
 5952, 516, 0.965, 5.85843e-13, 2.34337e-08, 0.10789
 6012, 521, 0.965, 8.04923e-13, 3.21969e-08, 0.10789
 6072, 526, 0.965, 1.10154e-12, 4.40617e-08, 0.10789
 6132, 531, 0.965, 1.5016e-12, 6.0064e-08, 0.10789
 6192, 536, 0.965, 2.03913e-12, 8.1565e-08, 0.10789
 6252, 541, 0.965, 2.75868e-12, 1.10347e-07, 0.10789
 6312, 546, 0.965, 3.71841e-12, 1.48736e-07, 0.10789
 6372, 551, 0.965, 4.99389e-12, 1.99756e-07, 0.10789
 6432, 556, 0.965, 6.68307e-12, 2.67323e-07, 0.10789
 6492, 561, 0.965, 8.91244e-12, 3.56497e-07, 0.10789
 6552, 566, 0.965, 1.18448e-11, 4.73791e-07, 0.10789
 6612, 571, 0.965, 1.5689e-11, 6.27558e-07, 0.10789
 6672, 576, 0.965, 2.07121e-11, 8.28483e-07, 0.10789
 6732, 581, 0.965, 2.72547e-11, 1.09019e-06, 0.10789
 6792, 586, 0.965, 3.57495e-11, 1.42998e-06, 0.10789
 6852, 591, 0.965, 4.67452e-11, 1.86981e-06, 0.10789
 6912, 596, 0.965, 6.09344e-11, 2.43738e-06, 0.10789
 6972, 601, 0.965, 7.91903e-11, 3.16761e-06, 0.10789
 7032, 606, 0.965, 1.02609e-10, 4.10437e-06, 0.10789
 7092, 611, 0.965, 1.32565e-10, 5.3026e-06, 0.10789
 7152, 616, 0.965, 1.70773e-10, 6.83093e-06, 0.10789
 7212, 621, 0.965, 2.19372e-10, 8.77486e-06, 0.10789
 7272, 626, 0.965, 2.81016e-10, 1.12407e-05, 0.10789
 7332, 631, 0.965, 3.58999e-10, 1.436e-05, 0.107891
 7392, 636, 0.965, 4.57388e-10, 1.82955e-05, 0.107891
 7452, 641, 0.965, 5.812e-10, 2.3248e-05, 0.10789
 7512, 646, 0.965, 7.36606e-10, 2.94642e-05, 0.107891
 7572, 651, 0.965, 9.31174e-10, 3.72469e-05, 0.107891
 7632, 656, 0.965, 1.17417e-09, 4.69668e-05, 0.107891
 7692, 661, 0.965, 1.47691e-09, 5.90762e-05, 0.107891
 7752, 666, 0.965, 1.85316e-09, 7.41266e-05, 0.107891
 7812, 671, 0.964999, 2.3197e-09, 9.27878e-05, 0.107891
 7872, 676, 0.964999, 2.89682e-09, 0.000115873, 0.107891
 7932, 681, 0.964999, 3.6091e-09, 0.000144364, 0.107891
 7992, 686, 0.964999, 4.48624e-09, 0.00017945, 0.107891
 8052, 691, 0.964998, 5.56398e-09, 0.000222559, 0.107892
 8112, 696, 0.964998, 6.88532e-09, 0.000275413, 0.107892
 8172, 701, 0.964998, 8.50182e-09, 0.000340073, 0.107892
 8232, 706, 0.964997, 1.04753e-08, 0.000419011, 0.107893
 8292, 711, 0.964996, 1.28794e-08, 0.000515177, 0.107893
 8352, 716, 0.964996, 1.58023e-08, 0.000632093, 0.107894
 8412, 721, 0.964994, 1.93487e-08, 0.000773948, 0.107895
 8472, 726, 0.964993, 2.3643e-08, 0.000945719, 0.107896
 8532, 731, 0.964992, 2.88327e-08, 0.00115331, 0.107897
 8592, 736, 0.96499, 3.50926e-08, 0.0014037, 0.107898
 8652, 741, 0.964987, 4.26288e-08, 0.00170515, 0.1079
 8712, 746, 0.964985, 5.16846e-08, 0.00206738, 0.107902
 8772, 751, 0.964981, 6.25464e-08, 0.00250186, 0.107904
 8832, 756, 0.964977, 7.55507e-08, 0.00302203, 0.107907
 8892, 761, 0.964972, 9.10921e-08, 0.00364368, 0.107911
 8952, 766, 0.964966, 1.09633e-07, 0.00438531, 0.107915
 9012, 771, 0.964959, 1.31713e-07, 0.00526852, 0.107919
 9072, 776, 0.96495, 1.57964e-07, 0.00631854, 0.107925
 9132, 781, 0.96494, 1.89119e-07, 0.00756477, 0.107932
 9192, 786, 0.964927, 2.26034e-07, 0.00904138, 0.10794
 9252, 791, 0.964913, 2.69702e-07, 0.0107881, 0.10795
 9312, 796, 0.964895, 3.21274e-07, 0.012851, 0.107961
 9360, 800, 0.964878, 3.69112e-07, 0.0147645, 0.107971